%% logfile from robot Tania (57)
% Tania (57)
%  1    time 0.211 sec
%  2  3 Motor voltage [V] left, right: 7.27 7.23
%  4  5 Wheel velocity [m/s] left, right: 0.7923 0.7954
%  6    Battery voltage [V]: 11.89
%  7  9 Chirp frequency =1256.1 rad/s, phase=1.2561 rad, value=0.95089
0.211 7.27 7.23 0.7923 0.7954 11.89 1256.1 1.2561 0.95089 
0.211 5.48 5.41 0.7858 0.7192 11.88 1255.56 2.51166 0.58909 
0.212 -0.41 -0.45 0.7830 0.7591 11.87 1255.02 3.76668 -0.585172 
0.213 -2.23 -2.30 0.8308 0.8844 11.89 1254.49 5.02117 -0.952704 
0.214 2.49 2.43 0.7895 0.8440 11.89 1253.95 6.27512 -0.00806448 
0.215 7.27 7.20 0.8419 0.6850 11.90 1253.41 1.24535 0.947508 
0.216 5.53 5.46 0.7579 0.8673 11.88 1252.88 2.49822 0.599894 
0.217 -0.33 -0.39 0.8006 0.6881 11.87 1252.34 3.75056 -0.572024 
0.218 -2.26 -2.32 0.7584 0.8281 11.88 1251.8 5.00237 -0.95825 
0.219 2.39 2.32 0.8132 0.7037 11.88 1251.27 6.25363 -0.0295461 
0.220 7.23 7.16 0.8433 0.7986 11.90 1250.73 1.22118 0.939505 
0.221 5.63 5.58 0.7774 0.7218 11.88 1250.2 2.47138 0.621154 
0.222 -0.22 -0.26 0.7523 0.7784 11.85 1249.66 3.72104 -0.547561 
0.223 -2.31 -2.35 0.7995 0.8043 11.87 1249.13 4.97017 -0.966959 
0.224 2.20 2.16 0.7631 0.7846 11.88 1248.59 6.21876 -0.0643841 
0.225 7.15 7.11 0.7914 0.8004 11.88 1248.06 1.18363 0.925982 
0.226 5.78 5.74 0.7905 0.7863 11.86 1247.52 2.43115 0.652169 
0.227 -0.03 -0.08 0.7737 0.7814 11.85 1246.99 3.67814 -0.511171 
0.228 -2.37 -2.41 0.7380 0.8097 11.88 1246.45 4.92459 -0.977569 
0.229 1.96 1.92 0.7927 0.8236 11.88 1245.92 6.17052 -0.112432 
0.230 7.05 7.01 0.8140 0.7490 11.90 1245.39 1.13272 0.905568 
0.231 5.98 5.94 0.7760 0.8286 11.88 1244.85 2.37757 0.69183 
0.232 0.21 0.17 0.7772 0.7970 11.86 1244.32 3.62189 -0.462046 
0.233 -2.42 -2.46 0.8007 0.8638 11.88 1243.79 4.86568 -0.988274 
0.234 1.65 1.61 0.8158 0.7761 11.89 1243.26 6.10894 -0.173367 
0.235 6.90 6.86 0.8302 0.8106 11.89 1242.72 1.06848 0.876468 
0.236 6.21 6.17 0.7806 0.8005 11.88 1242.19 2.31067 0.738554 
0.237 0.54 0.47 0.7925 0.8603 11.86 1241.66 3.55233 -0.399285 
0.238 -2.45 -2.52 0.7714 0.8238 11.89 1241.13 4.79346 -0.996716 
0.239 1.29 1.25 0.8433 0.7172 11.89 1240.6 6.03406 -0.246561 
0.240 6.72 6.65 0.7728 0.8439 11.89 1240.07 0.990937 0.83654 
0.241 6.49 6.42 0.7911 0.6903 11.90 1239.54 2.23047 0.790191 
0.242 0.93 0.85 0.7354 0.8458 11.87 1239 3.46948 -0.322041 
0.243 -2.46 -2.54 0.7935 0.7208 11.88 1238.47 4.70795 -0.99999 
0.244 0.88 0.81 0.8417 0.8172 11.89 1237.94 5.9459 -0.330931 
0.245 6.45 6.38 0.7928 0.7227 11.89 1237.41 0.900124 0.783404 
0.246 6.75 6.68 0.7924 0.8086 11.88 1236.88 2.13701 0.843939 
0.247 1.39 1.31 0.7770 0.7560 11.86 1236.35 3.37336 -0.229701 
0.248 -2.44 -2.51 0.7515 0.7989 11.89 1235.83 4.60919 -0.99468 
0.249 0.41 0.34 0.8359 0.8006 11.89 1235.3 5.84449 -0.424763 
0.250 6.11 6.04 0.7582 0.7914 11.88 1234.77 0.796068 0.714611 
0.251 7.02 6.94 0.7881 0.8307 11.88 1234.24 2.03031 0.89627 
0.252 1.93 1.85 0.7384 0.7970 11.87 1233.71 3.26402 -0.122119 
0.253 -2.35 -2.42 0.7979 0.7069 11.88 1233.18 4.4972 -0.976936 
0.254 -0.09 -0.16 0.8414 0.8546 11.88 1232.65 5.72985 -0.525524 
0.255 5.68 5.60 0.8358 0.6943 11.89 1232.13 0.678796 0.627856 
0.256 7.25 7.18 0.8048 0.8407 11.90 1231.6 1.9104 0.942888 
0.257 2.54 2.46 0.7933 0.6933 11.87 1231.07 3.14147 0.000125082 
0.258 -2.18 -2.25 0.8032 0.8289 11.87 1230.55 4.37201 -0.942629 
0.259 -0.61 -0.69 0.8352 0.7348 11.88 1230.02 5.60203 -0.62969 
0.260 5.13 5.08 0.8494 0.8056 11.88 1229.49 0.548337 0.521269 
0.261 7.43 7.36 0.7808 0.8536 11.90 1228.97 1.7773 0.978753 
0.262 3.20 3.15 0.8597 0.7847 11.87 1228.44 3.00574 0.135434 
0.263 -1.90 -1.98 0.7851 0.6818 11.88 1227.91 4.23365 -0.887579 
0.264 -1.14 -1.19 0.8713 0.8488 11.89 1227.39 5.46104 -0.732606 
0.265 4.51 4.43 0.7302 0.7016 11.90 1226.86 0.404719 0.393761 
0.266 7.53 7.45 0.8025 0.8226 11.90 1226.34 1.63106 0.998185 
0.267 3.93 3.88 0.7773 0.6926 11.88 1225.81 2.85687 0.280893 
0.268 -1.51 -1.56 0.8430 0.8060 11.87 1225.29 4.08215 -0.807889 
0.269 -1.62 -1.67 0.7417 0.7548 11.89 1224.76 5.30692 -0.828413 
0.270 3.75 3.70 0.8321 0.8236 11.88 1224.24 0.24797 0.245437 
0.271 7.50 7.45 0.7142 0.7549 11.90 1223.71 1.47168 0.995092 
0.272 4.68 4.63 0.8507 0.7620 11.88 1223.19 2.69487 0.432008 
0.273 -0.98 -1.03 0.7007 0.7708 11.87 1222.67 3.91754 -0.700393 
0.274 -2.02 -2.08 0.8541 0.7964 11.88 1222.14 5.13968 -0.91009 
0.275 2.92 2.87 0.7026 0.8367 11.89 1221.62 0.078118 0.0780386 
0.276 7.34 7.29 0.7878 0.7714 11.90 1221.1 1.29921 0.963348 
0.277 5.44 5.39 0.7980 0.6551 11.89 1220.57 2.51979 0.582502 
0.279 -2.32 -2.37 0.7817 0.6822 11.89 1219.53 4.95937 -0.969655 
0.280 2.00 1.95 0.8143 0.8797 11.89 1219.01 6.17838 -0.104617 
0.281 7.01 6.96 0.7516 0.6823 11.89 1218.49 1.11368 0.897327 
0.282 6.15 6.09 0.8135 0.7952 11.88 1217.96 2.33164 0.724254 
0.283 0.54 0.49 0.7275 0.7082 11.86 1217.44 3.54908 -0.396306 
0.284 -2.47 -2.52 0.8326 0.7990 11.88 1216.92 4.766 -0.998563 
0.285 1.04 0.99 0.7192 0.8760 11.88 1216.4 5.9824 -0.296268 
0.286 6.49 6.44 0.8461 0.8261 11.89 1215.88 0.915097 0.792622 
0.287 6.76 6.71 0.6894 0.6737 11.89 1215.36 2.13046 0.847436 
0.288 1.51 1.46 0.8515 0.8740 11.87 1214.84 3.34529 -0.202296 
0.289 -2.42 -2.47 0.6996 0.7142 11.88 1214.32 4.55961 -0.988352 
0.290 0.09 0.03 0.8107 0.8518 11.89 1213.8 5.77341 -0.48798 
0.291 5.76 5.71 0.8597 0.7048 11.89 1213.28 0.703504 0.646894 
0.292 7.23 7.18 0.8467 0.8223 11.90 1212.76 1.91626 0.940917 
0.293 2.59 2.54 0.7157 0.7135 11.87 1212.24 3.1285 0.0130885 
0.294 -2.13 -2.18 0.8194 0.8149 11.87 1211.72 4.34023 -0.931543 
0.295 -0.81 -0.87 0.7208 0.7652 11.89 1211.2 5.55143 -0.668178 
0.296 4.83 4.78 0.8726 0.7715 11.89 1210.68 0.478926 0.460827 
0.297 7.49 7.44 0.6754 0.7419 11.90 1210.17 1.68909 0.993011 
0.298 3.73 3.68 0.8460 0.7530 11.87 1209.65 2.89874 0.240473 
0.299 -1.59 -1.64 0.6845 0.8098 11.87 1209.13 4.10787 -0.822775 
0.300 -1.59 -1.64 0.7893 0.8026 11.89 1208.61 5.31648 -0.823018 
0.301 3.72 3.67 0.8176 0.6843 11.88 1208.09 0.24139 0.239053 
0.302 7.49 7.44 0.8113 0.8495 11.89 1207.58 1.44897 0.992588 
0.303 4.85 4.82 0.7544 0.6847 11.87 1207.06 2.65603 0.466708 
0.304 -0.77 -0.83 0.8008 0.8851 11.86 1206.54 3.86257 -0.66012 
0.305 -2.16 -2.21 0.7944 0.7280 11.88 1206.03 5.0686 -0.937225 
0.307 7.18 7.13 0.7489 0.7185 11.90 1204.99 1.19592 0.930552 
0.308 5.90 5.85 0.8318 0.8067 11.89 1204.48 2.4004 0.67517 
0.309 0.29 0.24 0.7155 0.8601 11.85 1203.96 3.60436 -0.446427 
0.310 -2.45 -2.50 0.8624 0.8265 11.87 1203.45 4.80781 -0.995451 
0.311 1.18 1.13 0.7187 0.6922 11.89 1202.93 6.01074 -0.269087 
0.312 6.53 6.48 0.8670 0.8394 11.90 1202.42 0.929973 0.801604 
0.313 6.76 6.71 0.6610 0.6728 11.90 1201.9 2.13188 0.846681 
0.314 1.57 1.52 0.7961 0.8357 11.87 1201.39 3.33326 -0.1905 
0.315 -2.39 -2.45 0.8325 0.6975 11.89 1200.87 4.53414 -0.984155 
0.316 -0.08 -0.13 0.8457 0.8135 11.89 1200.36 5.7345 -0.521568 
0.317 5.56 5.50 0.7090 0.7196 11.89 1199.85 0.651158 0.606108 
0.318 7.33 7.28 0.8126 0.8098 11.89 1199.33 1.85049 0.96114 
0.319 2.99 2.93 0.6780 0.7437 11.87 1198.82 3.04931 0.0921525 
0.320 -1.94 -2.00 0.8436 0.7878 11.87 1198.31 4.24761 -0.893923 
0.321 -1.19 -1.24 0.7033 0.7967 11.89 1197.79 5.44541 -0.743158 
0.322 4.29 4.23 0.8435 0.7887 11.89 1197.28 0.359502 0.351808 
0.323 7.53 7.47 0.6798 0.8280 11.90 1196.77 1.55627 0.999894 
0.324 4.42 4.37 0.8023 0.7793 11.88 1196.25 2.75252 0.379327 
0.325 -1.08 -1.14 0.8169 0.6876 11.87 1195.74 3.94827 -0.721989 
0.326 -2.01 -2.07 0.8391 0.8381 11.89 1195.23 5.1435 -0.908503 
0.327 2.80 2.75 0.7868 0.6920 11.88 1194.72 0.0550305 0.0550027 
0.329 5.74 5.69 0.7485 0.6767 11.89 1193.7 2.44293 0.643191 
0.330 0.15 0.10 0.8262 0.8078 11.86 1193.19 3.63612 -0.474616 
0.331 -2.44 -2.49 0.7483 0.7236 11.88 1192.67 4.82879 -0.993233 
0.332 1.23 1.18 0.8418 0.8049 11.88 1192.16 6.02096 -0.259232 
0.333 6.53 6.48 0.6999 0.8621 11.89 1191.65 0.929427 0.801277 
0.334 6.79 6.74 0.8474 0.7799 11.89 1191.14 2.12057 0.852643 
0.335 1.68 1.63 0.6846 0.6716 11.86 1190.63 3.3112 -0.168799 
0.336 -2.36 -2.42 0.8559 0.8444 11.87 1190.12 4.50133 -0.977809 
0.337 -0.26 -0.32 0.6986 0.7207 11.88 1189.61 5.69094 -0.558224 
0.338 5.34 5.28 0.7967 0.8476 11.89 1189.1 0.596861 0.562049 
0.339 7.41 7.36 0.8371 0.6967 11.89 1188.6 1.78546 0.977049 
0.340 3.36 3.31 0.8367 0.8289 11.86 1188.09 2.97354 0.167259 
0.341 -1.73 -1.79 0.7350 0.7429 11.86 1187.58 4.16112 -0.851862 
0.342 -1.49 -1.55 0.8397 0.8218 11.89 1187.07 5.34819 -0.804595 
0.343 3.77 3.72 0.7187 0.7684 11.88 1186.56 0.251568 0.248923 
0.344 7.48 7.43 0.8642 0.7599 11.90 1186.05 1.43762 0.991145 
0.345 5.01 4.95 0.6765 0.7487 11.88 1185.55 2.62317 0.495512 
0.346 -0.56 -0.62 0.8203 0.7697 11.87 1185.04 3.80821 -0.618328 
0.348 2.00 1.94 0.7927 0.7919 11.89 1184.02 6.17676 -0.106223 
0.349 6.93 6.87 0.8061 0.6668 11.89 1183.52 1.07709 0.880584 
0.350 6.39 6.33 0.7929 0.8327 11.88 1183.01 2.2601 0.771687 
0.351 1.05 0.99 0.7556 0.6701 11.86 1182.5 3.44261 -0.29649 
0.352 -2.45 -2.51 0.8044 0.8434 11.88 1182 4.62461 -0.996149 
0.353 0.23 0.17 0.7878 0.7235 11.88 1181.49 5.8061 -0.459195 
0.354 5.76 5.71 0.8408 0.8102 11.89 1180.99 0.703898 0.647194 
0.355 7.29 7.23 0.7371 0.7070 11.90 1180.48 1.88438 0.951235 
0.356 2.92 2.86 0.8273 0.8120 11.87 1179.97 3.06435 0.0771629 
0.357 -1.93 -1.99 0.7302 0.8738 11.87 1179.47 4.24382 -0.892217 
0.358 -1.26 -1.32 0.8766 0.8386 11.88 1178.96 5.42279 -0.758102 
0.359 4.09 4.03 0.7203 0.6882 11.88 1178.46 0.318062 0.312726 
0.360 7.51 7.46 0.8696 0.8316 11.90 1177.96 1.49602 0.997205 
0.361 4.79 4.73 0.6702 0.6739 11.88 1177.45 2.67347 0.451213 
0.362 -0.72 -0.78 0.8142 0.8435 11.87 1176.95 3.85042 -0.650941 
0.363 -2.23 -2.28 0.8494 0.7046 11.89 1176.44 5.02686 -0.95096 
0.365 6.97 6.92 0.7053 0.7107 11.89 1175.44 1.09505 0.888951 
0.366 6.36 6.30 0.8107 0.7979 11.88 1174.93 2.26998 0.765366 
0.367 1.04 0.98 0.6851 0.7431 11.86 1174.43 3.44441 -0.298213 
0.368 -2.45 -2.51 0.8494 0.7874 11.88 1173.93 4.61834 -0.995581 
0.369 0.17 0.11 0.7034 0.7916 11.88 1173.42 5.79176 -0.471879 
0.370 5.68 5.62 0.8429 0.7853 11.89 1172.92 0.681501 0.62996 
0.371 7.33 7.27 0.6808 0.8182 11.89 1172.42 1.85392 0.960187 
0.372 3.11 3.05 0.8078 0.7806 11.87 1171.92 3.02584 0.115495 
0.373 -1.82 -1.88 0.8240 0.6884 11.87 1171.42 4.19726 -0.870227 
0.374 -1.43 -1.49 0.8454 0.8379 11.89 1170.92 5.36817 -0.792571 
0.375 3.79 3.73 0.7928 0.6884 11.88 1170.41 0.255399 0.252632 
0.376 7.48 7.42 0.8136 0.8685 11.90 1169.91 1.42531 0.989436 
0.377 5.13 5.07 0.7545 0.6805 11.88 1169.41 2.59472 0.520015 
0.379 -2.35 -2.41 0.7526 0.7271 11.88 1168.41 4.93205 -0.975972 
0.380 1.62 1.56 0.8455 0.8044 11.88 1167.91 6.09996 -0.182206 
0.381 6.69 6.63 0.7003 0.8549 11.90 1167.41 0.984181 0.832819 
0.382 6.71 6.65 0.8448 0.7766 11.88 1166.91 2.15109 0.836301 
0.383 1.66 1.59 0.6781 0.6745 11.86 1166.41 3.3175 -0.175004 
0.384 -2.34 -2.40 0.8489 0.8439 11.87 1165.91 4.48341 -0.9739 
0.385 -0.43 -0.49 0.6965 0.7162 11.89 1165.41 5.64883 -0.59266 
0.386 5.06 5.00 0.7960 0.8446 11.89 1164.91 0.530556 0.506013 
0.387 7.49 7.43 0.8369 0.6941 11.89 1164.42 1.69497 0.9923 
0.388 3.92 3.86 0.8324 0.8271 11.87 1163.92 2.85889 0.278955 
0.389 -1.32 -1.39 0.7260 0.7415 11.87 1163.42 4.02231 -0.771193 
0.390 -1.92 -1.98 0.8287 0.8207 11.88 1162.92 5.18523 -0.89028 
0.391 2.85 2.79 0.7108 0.7711 11.88 1162.42 0.0644624 0.0644177 
0.393 5.95 5.89 0.6613 0.7470 11.89 1161.43 2.38781 0.684399 
0.394 0.55 0.49 0.8437 0.7671 11.86 1160.93 3.54874 -0.395995 
0.395 -2.47 -2.53 0.6849 0.8238 11.89 1160.43 4.70918 -0.999995 
0.396 0.52 0.46 0.7826 0.7989 11.88 1159.94 5.86911 -0.402341 
0.397 5.92 5.86 0.8042 0.6740 11.89 1159.44 0.745367 0.678242 
0.398 7.25 7.19 0.7879 0.8369 11.89 1158.94 1.90431 0.944898 
0.399 2.92 2.86 0.7459 0.6815 11.87 1158.45 3.06276 0.0787535 
0.400 -1.88 -1.94 0.8085 0.8452 11.87 1157.95 4.22071 -0.881541 
0.401 -1.40 -1.46 0.7849 0.7356 11.89 1157.46 5.37816 -0.786438 
0.402 3.78 3.71 0.8426 0.8209 11.89 1156.96 0.251939 0.249282 
0.403 7.46 7.40 0.7359 0.7159 11.90 1156.46 1.4084 0.986843 
0.404 5.26 5.20 0.8205 0.8074 11.88 1155.97 2.56437 0.545696 
0.406 -2.40 -2.47 0.8599 0.8320 11.88 1154.98 4.87483 -0.986836 
0.407 1.28 1.21 0.7172 0.6930 11.88 1154.49 6.02931 -0.251154 
0.408 6.45 6.38 0.8670 0.8398 11.89 1153.99 0.900119 0.783401 
0.409 6.96 6.90 0.6607 0.6688 11.90 1153.5 2.05362 0.885689 
0.410 2.21 2.14 0.7977 0.8301 11.87 1153 3.20662 -0.0649813 
0.411 -2.16 -2.22 0.8323 0.6978 11.87 1152.51 4.35913 -0.93825 
0.412 -0.95 -1.02 0.8482 0.8109 11.88 1152.02 5.51115 -0.697598 
0.413 4.38 4.32 0.7171 0.7277 11.89 1151.52 0.379483 0.370441 
0.414 7.53 7.46 0.8178 0.8068 11.90 1151.03 1.53051 0.999189 
0.415 4.75 4.69 0.6788 0.7388 11.87 1150.54 2.68105 0.444434 
0.416 -0.65 -0.71 0.8855 0.7812 11.86 1150.04 3.8311 -0.636154 
0.418 1.77 1.70 0.8532 0.7970 11.88 1149.06 6.12971 -0.152875 
0.419 6.73 6.66 0.6880 0.8304 11.90 1148.57 0.995091 0.838809 
0.420 6.74 6.67 0.7730 0.7677 11.90 1148.08 2.14317 0.840619 
0.421 1.79 1.72 0.8052 0.6704 11.87 1147.59 3.29075 -0.148608 
0.422 -2.28 -2.35 0.8267 0.8208 11.88 1147.09 4.43785 -0.962549 
0.423 -0.68 -0.75 0.7922 0.6877 11.89 1146.6 5.58445 -0.64325 
0.424 4.70 4.63 0.8171 0.8388 11.89 1146.11 0.447376 0.432602 
0.425 7.53 7.46 0.7481 0.6735 11.90 1145.62 1.593 0.999754 
0.426 4.50 4.43 0.8135 0.7918 11.87 1145.13 2.73813 0.392607 
0.427 -0.86 -0.90 0.7331 0.7912 11.87 1144.64 3.88277 -0.675156 
0.428 -2.23 -2.27 0.8373 0.7586 11.88 1144.15 5.02692 -0.950942 
0.430 6.82 6.75 0.8417 0.7956 11.89 1143.17 1.03057 0.85759 
0.431 6.64 6.60 0.6826 0.6910 11.89 1142.68 2.17325 0.823949 
0.432 1.67 1.60 0.8861 0.8783 11.86 1142.19 3.31544 -0.172973 
0.433 -2.30 -2.37 0.6979 0.7183 11.88 1141.7 4.45714 -0.967601 
0.434 -0.63 -0.69 0.8095 0.8553 11.89 1141.21 5.59836 -0.632539 
0.435 4.73 4.67 0.8603 0.7066 11.89 1140.73 0.455899 0.44027 
0.436 7.53 7.46 0.8455 0.8209 11.90 1140.24 1.59614 0.999679 
0.437 4.51 4.44 0.7048 0.7087 11.89 1139.75 2.73589 0.394667 
0.438 -0.81 -0.88 0.8048 0.8100 11.87 1139.26 3.87515 -0.669515 
0.440 1.88 1.81 0.8719 0.7792 11.88 1138.29 6.15221 -0.130602 
0.441 6.76 6.69 0.6789 0.7497 11.89 1137.8 1.00682 0.845138 
0.442 6.72 6.68 0.8437 0.7857 11.88 1137.31 2.14414 0.840095 
0.443 1.82 1.78 0.6728 0.7791 11.86 1136.83 3.28096 -0.138917 
0.444 -2.25 -2.32 0.7817 0.8094 11.88 1136.34 4.4173 -0.956776 
0.445 -0.81 -0.85 0.8275 0.7668 11.88 1135.85 5.55315 -0.666895 
0.446 4.50 4.44 0.8354 0.8371 11.89 1135.37 0.405331 0.394323 
0.447 7.52 7.48 0.7651 0.7250 11.89 1134.88 1.54021 0.999532 
0.448 4.78 4.72 0.7960 0.8728 11.87 1134.39 2.6746 0.450199 
0.449 -0.56 -0.63 0.7791 0.7198 11.86 1133.91 3.80851 -0.618569 
0.451 1.50 1.43 0.7680 0.7394 11.88 1132.94 6.07487 -0.206809 
0.452 6.52 6.46 0.8492 0.8035 11.90 1132.45 0.924141 0.798103 
0.453 6.96 6.89 0.6951 0.8498 11.89 1131.97 2.05611 0.884529 
0.454 2.30 2.24 0.8578 0.7923 11.87 1131.48 3.18759 -0.0459822 
0.455 -2.08 -2.15 0.7042 0.6881 11.87 1131 4.31859 -0.923458 
0.456 -1.17 -1.24 0.8735 0.8553 11.88 1130.51 5.4491 -0.740679 
0.457 3.99 3.92 0.6917 0.7042 11.89 1130.03 0.29595 0.291648 
0.458 7.48 7.41 0.7823 0.8248 11.89 1129.55 1.4255 0.989462 
0.459 5.30 5.24 0.8266 0.6887 11.87 1129.06 2.55456 0.553894 
0.461 -2.44 -2.51 0.7466 0.7591 11.88 1128.1 4.81124 -0.995119 
0.462 0.85 0.78 0.8463 0.8328 11.88 1127.61 5.93885 -0.337572 
0.463 6.06 5.99 0.7238 0.7651 11.89 1127.13 0.782795 0.705263 
0.464 7.24 7.19 0.8120 0.7633 11.89 1126.65 1.90944 0.943205 
0.465 3.06 2.99 0.6846 0.7596 11.87 1126.17 3.03561 0.105786 
0.466 -1.74 -1.78 0.8321 0.7864 11.87 1125.68 4.16129 -0.851951 
0.467 -1.66 -1.73 0.7073 0.8382 11.88 1125.2 5.28649 -0.839679 
0.468 3.17 3.10 0.8006 0.7941 11.88 1124.72 0.128029 0.12768 
0.470 6.00 5.93 0.7954 0.8311 11.88 1123.76 2.37603 0.692946 
0.471 0.78 0.71 0.7578 0.6724 11.86 1123.28 3.4993 -0.350129 
0.472 -2.44 -2.51 0.8071 0.8465 11.88 1122.8 4.6221 -0.995926 
0.473 -0.03 -0.10 0.7946 0.7254 11.89 1122.31 5.74441 -0.513084 
0.474 5.27 5.23 0.8271 0.8115 11.89 1121.83 0.58306 0.550581 
0.475 7.49 7.42 0.7436 0.7082 11.89 1121.35 1.70441 0.991086 
0.476 4.08 4.03 0.7918 0.8050 11.88 1120.87 2.82529 0.311056 
0.477 -1.08 -1.12 0.7216 0.8663 11.87 1120.39 3.94568 -0.7202 
0.478 -2.17 -2.21 0.8474 0.8338 11.89 1119.91 5.0656 -0.938268 
0.480 6.78 6.74 0.7924 0.8344 11.89 1118.96 1.0208 0.852528 
0.481 6.74 6.69 0.7927 0.6670 11.89 1118.48 2.13928 0.842719 
0.482 1.94 1.90 0.7816 0.8301 11.87 1118 3.25728 -0.115426 
0.483 -2.20 -2.24 0.8324 0.6973 11.88 1117.52 4.3748 -0.943555 
0.484 -1.03 -1.08 0.8322 0.8101 11.88 1117.04 5.49184 -0.711302 
0.485 4.12 4.08 0.7732 0.7265 11.88 1116.56 0.325214 0.319512 
0.486 7.48 7.44 0.7795 0.8044 11.90 1116.08 1.4413 0.991627 
0.487 5.28 5.24 0.7988 0.7378 11.88 1115.61 2.55691 0.551939 
0.489 -2.46 -2.51 0.7684 0.7847 11.88 1114.65 4.78669 -0.997241 
0.490 0.66 0.61 0.8395 0.8012 11.88 1114.17 5.90086 -0.373078 
0.491 5.86 5.82 0.7546 0.8317 11.89 1113.7 0.731373 0.667892 
0.492 7.33 7.29 0.7755 0.7638 11.89 1113.22 1.84459 0.962751 
0.493 3.44 3.39 0.7996 0.6638 11.88 1112.74 2.95734 0.183214 
0.494 -1.48 -1.52 0.8022 0.8552 11.87 1112.27 4.06961 -0.800431 
0.495 -1.94 -1.98 0.8066 0.6916 11.88 1111.79 5.1814 -0.892017 
0.496 2.57 2.52 0.7989 0.8453 11.88 1111.32 0.00952786 0.00952771 
0.498 6.47 6.43 0.7655 0.7917 11.88 1110.36 2.23073 0.790032 
0.499 1.52 1.50 0.7607 0.7611 11.87 1109.89 3.34062 -0.197717 
0.500 -2.31 -2.35 0.8162 0.7552 11.88 1109.41 4.45004 -0.965782 
0.501 -0.79 -0.83 0.7847 0.8806 11.89 1108.94 5.55897 -0.662545 
0.502 4.39 4.35 0.8390 0.8362 11.89 1108.46 0.384253 0.374866 
0.503 7.51 7.46 0.7521 0.6728 11.90 1107.99 1.49224 0.996916 
0.504 5.10 5.06 0.7858 0.8711 11.88 1107.52 2.59976 0.515709 
0.506 -2.45 -2.50 0.8040 0.8453 11.89 1106.57 4.81337 -0.994906 
0.507 0.74 0.70 0.8469 0.7125 11.88 1106.09 5.91946 -0.355759 
0.508 5.90 5.86 0.7829 0.8039 11.89 1105.62 0.741894 0.675685 
0.509 7.33 7.29 0.7818 0.6996 11.89 1105.15 1.84704 0.962087 
0.510 3.46 3.42 0.7643 0.7926 11.87 1104.67 2.95171 0.18874 
0.511 -1.44 -1.48 0.7426 0.7545 11.87 1104.2 4.05591 -0.792149 
0.512 -1.99 -2.03 0.8302 0.7858 11.89 1103.73 5.15964 -0.901638 
0.514 6.94 6.89 0.7814 0.7698 11.89 1102.78 1.0825 0.883131 
0.515 6.61 6.57 0.7874 0.8099 11.88 1102.31 2.18481 0.817344 
0.516 1.80 1.75 0.7892 0.7901 11.87 1101.84 3.28664 -0.144544 
0.517 -2.22 -2.26 0.8272 0.7014 11.88 1101.37 4.38801 -0.947849 
0.518 -1.04 -1.09 0.8292 0.8508 11.88 1100.9 5.48891 -0.713357 
0.519 4.03 3.98 0.8079 0.6921 11.88 1100.42 0.306147 0.301387 
0.520 7.45 7.41 0.7764 0.8709 11.90 1099.95 1.4061 0.986468 
0.522 0.29 0.24 0.7793 0.8178 11.87 1099.01 3.60459 -0.446635 
0.523 -2.48 -2.52 0.7858 0.7338 11.88 1098.54 4.70314 -0.999957 
0.524 0.20 0.16 0.8251 0.8159 11.89 1098.07 5.80121 -0.463534 
0.525 5.41 5.37 0.8028 0.8721 11.89 1097.6 0.615621 0.577466 
0.526 7.47 7.43 0.7664 0.7882 11.89 1097.13 1.71275 0.989941 
0.527 4.15 4.11 0.8015 0.6733 11.87 1096.66 2.80941 0.326104 
0.528 -0.94 -0.98 0.8453 0.8452 11.87 1096.19 3.90561 -0.691824 
0.530 1.59 1.55 0.8138 0.8636 11.89 1095.25 6.09658 -0.185523 
0.531 6.46 6.42 0.8395 0.7109 11.89 1094.78 0.90818 0.788385 
0.532 7.06 7.02 0.7747 0.8028 11.89 1094.32 2.0025 0.908256 
0.533 2.75 2.70 0.7536 0.7243 11.87 1093.85 3.09634 0.0452342 
0.534 -1.81 -1.85 0.8052 0.8056 11.88 1093.38 4.18972 -0.866491 
0.535 -1.69 -1.73 0.7695 0.7822 11.89 1092.91 5.28263 -0.841769 
0.536 2.98 2.94 0.8012 0.7923 11.88 1092.44 0.0918905 0.0917612 
0.538 6.33 6.29 0.7695 0.7573 11.88 1091.51 2.27537 0.761886 
0.539 1.41 1.36 0.7309 0.8119 11.86 1091.04 3.36641 -0.222932 
0.540 -2.32 -2.36 0.7948 0.8133 11.88 1090.57 4.45699 -0.967562 
0.541 -0.83 -0.88 0.8367 0.7104 11.88 1090.11 5.54709 -0.671396 
0.542 4.25 4.21 0.8251 0.8509 11.89 1089.64 0.353548 0.346229 
0.543 7.48 7.44 0.7914 0.6823 11.90 1089.17 1.44272 0.99181 
0.544 5.39 5.34 0.7818 0.8365 11.88 1088.71 2.53143 0.573002 
0.546 -2.48 -2.52 0.8272 0.8166 11.89 1087.78 4.70745 -0.999988 
0.547 0.17 0.13 0.8008 0.7488 11.88 1087.31 5.79475 -0.469241 
0.548 5.34 5.29 0.7940 0.8176 11.89 1086.84 0.598413 0.563332 
0.549 7.50 7.43 0.7905 0.8131 11.90 1086.38 1.68479 0.99351 
0.550 4.35 4.28 0.7696 0.7874 11.87 1085.91 2.77071 0.362443 
0.551 -0.75 -0.80 0.7481 0.6864 11.87 1085.45 3.85615 -0.655286 
0.553 1.26 1.19 0.7639 0.7832 11.88 1084.52 6.02566 -0.254691 
0.554 6.21 6.14 0.7996 0.8519 11.89 1084.06 0.826527 0.735583 
0.555 7.25 7.18 0.8258 0.7990 11.89 1083.59 1.91012 0.942981 
0.556 3.27 3.20 0.7881 0.8293 11.87 1083.13 2.99325 0.147804 
0.557 -1.49 -1.56 0.7769 0.7820 11.87 1082.66 4.07591 -0.804193 
0.558 -1.98 -2.05 0.8296 0.8416 11.88 1082.2 5.15811 -0.9023 
0.560 6.84 6.77 0.7972 0.8015 11.89 1081.27 1.03793 0.861356 
0.561 6.80 6.73 0.7964 0.7859 11.89 1080.81 2.11874 0.853595 
0.562 2.25 2.18 0.7800 0.7892 11.87 1080.35 3.19909 -0.0574681 
0.563 -2.00 -2.07 0.7459 0.8240 11.87 1079.89 4.27898 -0.907538 
0.564 -1.46 -1.53 0.8040 0.8383 11.89 1079.42 5.3584 -0.798491 
0.565 3.30 3.23 0.8300 0.7610 11.89 1078.96 0.154176 0.153566 
0.567 6.23 6.16 0.7983 0.7985 11.89 1078.04 2.31071 0.738525 
0.568 1.31 1.24 0.7884 0.8595 11.87 1077.58 3.38829 -0.244201 
0.569 -2.33 -2.37 0.9294 0.7741 11.88 1077.11 4.4654 -0.969654 
0.570 -0.85 -0.90 0.8665 0.8470 11.89 1076.65 5.54206 -0.675121 
0.571 4.17 4.12 0.7969 0.7860 11.89 1076.19 0.335064 0.328829 
0.572 7.46 7.41 0.7819 0.8212 11.90 1075.73 1.4108 0.987227 
0.574 0.49 0.44 0.7816 0.8097 11.86 1074.81 3.56088 -0.407107 
0.575 -2.46 -2.51 0.7596 0.7561 11.88 1074.35 4.63523 -0.997025 
0.576 -0.19 -0.24 0.8432 0.8667 11.89 1073.89 5.70912 -0.543051 
0.577 4.92 4.87 0.7524 0.7744 11.89 1073.43 0.499365 0.478868 
0.578 7.52 7.48 0.7790 0.8256 11.90 1072.97 1.57234 0.999999 
0.579 4.91 4.86 0.8158 0.7488 11.87 1072.51 2.64485 0.476566 
0.581 -2.45 -2.52 0.7904 0.8355 11.88 1071.59 4.7885 -0.997105 
0.582 0.48 0.41 0.8331 0.7858 11.89 1071.14 5.85963 -0.411004 
0.583 5.55 5.48 0.7750 0.7828 11.89 1070.68 0.647122 0.602893 
0.584 7.48 7.41 0.7856 0.7581 11.90 1070.22 1.71734 0.989282 
0.585 4.27 4.20 0.7973 0.7708 11.88 1069.76 2.7871 0.347114 
0.586 -0.74 -0.81 0.7899 0.8276 11.87 1069.3 3.8564 -0.655474 
0.588 1.11 1.03 0.8071 0.7041 11.89 1068.39 5.99363 -0.285522 
0.589 6.05 5.97 0.8239 0.8383 11.89 1067.93 0.778378 0.702126 
0.590 7.35 7.28 0.7816 0.6778 11.89 1067.47 1.84585 0.962411 
0.591 3.67 3.60 0.7783 0.8430 11.87 1067.02 2.91287 0.226738 
0.592 -1.18 -1.25 0.8010 0.7293 11.87 1066.56 3.97942 -0.743194 
0.593 -2.19 -2.26 0.8217 0.8353 11.89 1066.1 5.04553 -0.945021 
0.595 6.42 6.37 0.8483 0.8155 11.90 1065.19 0.893175 0.779066 
0.596 7.17 7.09 0.7434 0.8586 11.90 1064.73 1.95791 0.926003 
0.597 3.12 3.07 0.8665 0.7853 11.87 1064.28 3.02219 0.119124 
0.598 -1.51 -1.59 0.7525 0.6885 11.88 1063.82 4.08601 -0.810154 
0.599 -2.01 -2.05 0.8826 0.8609 11.89 1063.37 5.14937 -0.906032 
0.601 6.71 6.66 0.7864 0.8430 11.89 1062.46 0.991555 0.836878 
0.602 6.95 6.91 0.8279 0.6966 11.88 1062 2.05356 0.885717 
0.603 2.65 2.61 0.8401 0.8354 11.86 1061.55 3.1151 0.0264868 
0.604 -1.77 -1.82 0.7478 0.7539 11.87 1061.09 4.17619 -0.859659 
0.605 -1.80 -1.85 0.8507 0.8344 11.89 1060.64 5.23683 -0.865603 
0.606 2.59 2.54 0.7274 0.7840 11.89 1060.18 0.0138308 0.0138304 
0.608 6.75 6.71 0.6783 0.7559 11.89 1059.28 2.13284 0.846169 
0.609 2.27 2.23 0.8210 0.7665 11.86 1058.82 3.19166 -0.0500459 
0.610 -1.95 -2.00 0.7025 0.8245 11.88 1058.37 4.25003 -0.895002 
0.611 -1.60 -1.68 0.8055 0.8422 11.89 1057.92 5.30794 -0.827837 
0.612 2.93 2.89 0.8302 0.7033 11.89 1057.46 0.0822226 0.08213 
0.614 6.58 6.53 0.7538 0.6740 11.88 1056.56 2.19579 0.810966 
0.615 1.99 1.91 0.7969 0.8609 11.87 1056.11 3.2519 -0.110081 
0.616 -2.06 -2.13 0.7934 0.7766 11.88 1055.65 4.30755 -0.919166 
0.617 -1.44 -1.52 0.8636 0.8482 11.89 1055.2 5.36275 -0.795864 
0.618 3.21 3.13 0.7690 0.7829 11.88 1054.75 0.134317 0.133913 
0.620 6.45 6.38 0.6976 0.7911 11.88 1053.85 2.24246 0.782786 
0.621 1.77 1.69 0.8655 0.8034 11.86 1053.4 3.29586 -0.153654 
0.622 -2.13 -2.21 0.7119 0.7501 11.87 1052.94 4.3488 -0.934627 
0.623 -1.32 -1.40 0.8832 0.8633 11.89 1052.49 5.4013 -0.771941 
0.624 3.38 3.31 0.6992 0.7736 11.89 1052.04 0.170155 0.169335 
0.626 6.36 6.28 0.8305 0.8008 11.88 1051.14 2.27289 0.763491 
0.627 1.63 1.56 0.8390 0.8339 11.86 1050.69 3.32358 -0.180988 
0.628 -2.18 -2.25 0.7421 0.7883 11.88 1050.24 4.37383 -0.943233 
0.629 -1.26 -1.31 0.8446 0.8482 11.88 1049.79 5.42362 -0.757559 
0.630 3.47 3.42 0.7313 0.8088 11.89 1049.34 0.189779 0.188642 
0.632 6.29 6.25 0.7383 0.7904 11.88 1048.45 2.28712 0.754225 
0.633 1.56 1.51 0.7998 0.7954 11.86 1048 3.33512 -0.192318 
0.634 -2.21 -2.25 0.7634 0.8281 11.88 1047.55 4.38266 -0.946132 
0.635 -1.24 -1.29 0.8167 0.8430 11.88 1047.1 5.42976 -0.753534 
0.636 3.48 3.44 0.8344 0.7687 11.88 1046.65 0.193231 0.192031 
0.638 6.30 6.25 0.7849 0.8000 11.87 1045.76 2.28519 0.755491 
0.639 1.58 1.54 0.8024 0.8586 11.86 1045.31 3.3305 -0.187783 
0.640 -2.19 -2.24 0.8219 0.7728 11.88 1044.86 4.37536 -0.94374 
0.641 -1.27 -1.32 0.8482 0.8069 11.89 1044.41 5.41977 -0.760066 
0.642 3.44 3.36 0.8032 0.8189 11.89 1043.97 0.180551 0.179572 
0.644 6.37 6.30 0.7951 0.7837 11.88 1043.07 2.26714 0.767191 
0.645 1.69 1.64 0.7836 0.7106 11.86 1042.63 3.30977 -0.167384 
0.646 -2.14 -2.22 0.7623 0.8571 11.88 1042.18 4.35195 -0.935741 
0.647 -1.34 -1.42 0.8501 0.7274 11.89 1041.73 5.39368 -0.77676 
0.648 3.29 3.22 0.7618 0.8612 11.89 1041.29 0.151783 0.151201 
0.650 6.48 6.40 0.8242 0.8038 11.88 1040.4 2.23302 0.788627 
0.651 1.88 1.81 0.7995 0.7365 11.86 1039.95 3.27297 -0.131 
0.652 -2.07 -2.14 0.7885 0.8195 11.88 1039.51 4.31248 -0.921095 
0.653 -1.47 -1.55 0.8412 0.7903 11.89 1039.06 5.35154 -0.802605 
0.654 3.07 3.00 0.7886 0.7979 11.88 1038.62 0.106965 0.106761 
0.656 6.63 6.55 0.8022 0.7655 11.88 1037.73 2.18286 0.818463 
0.657 2.15 2.07 0.7826 0.8177 11.86 1037.28 3.22014 -0.0784704 
0.658 -1.95 -2.03 0.7550 0.8195 11.87 1036.84 4.25698 -0.898082 
0.659 -1.64 -1.72 0.8157 0.7173 11.88 1036.39 5.29338 -0.835921 
0.660 2.75 2.71 0.8466 0.8622 11.88 1035.95 0.0461408 0.0461245 
0.662 6.80 6.75 0.7930 0.8434 11.89 1035.06 2.11671 0.854653 
0.663 2.49 2.41 0.7974 0.7008 11.86 1034.62 3.15133 -0.00973862 
0.664 -1.80 -1.85 0.8523 0.8081 11.87 1034.18 4.18551 -0.86438 
0.665 -1.84 -1.90 0.7788 0.7495 11.88 1033.73 5.21924 -0.874276 
0.667 6.75 6.67 0.7035 0.8430 11.89 1032.85 1.0022 0.842658 
0.668 7.01 6.93 0.8297 0.8044 11.89 1032.41 2.03461 0.894354 
0.669 2.90 2.85 0.6964 0.6848 11.86 1031.97 3.06657 0.0749487 
0.670 -1.55 -1.62 0.8697 0.8563 11.87 1031.52 4.0981 -0.817182 
0.671 -2.03 -2.11 0.7130 0.7958 11.88 1031.08 5.12918 -0.914393 
0.673 6.48 6.40 0.8591 0.7676 11.90 1030.2 0.906834 0.787557 
0.674 7.21 7.13 0.8457 0.8167 11.89 1029.76 1.93659 0.933839 
0.675 3.41 3.33 0.7192 0.7602 11.86 1029.32 2.96591 0.17478 
0.676 -1.23 -1.31 0.8245 0.8210 11.87 1028.88 3.99479 -0.753385 
0.678 1.39 1.31 0.8888 0.8349 11.88 1028 6.05122 -0.229891 
0.679 6.11 6.03 0.6873 0.8024 11.89 1027.56 0.795591 0.714277 
0.680 7.38 7.30 0.8139 0.7995 11.89 1027.12 1.82271 0.968438 
0.681 3.98 3.90 0.6713 0.8139 11.86 1026.68 2.84938 0.288069 
0.682 -0.81 -0.89 0.7796 0.8218 11.86 1026.24 3.87562 -0.669865 
0.684 0.80 0.71 0.8511 0.8682 11.88 1025.36 5.92678 -0.348912 
0.685 5.64 5.56 0.7857 0.7581 11.89 1024.92 0.66851 0.619817 
0.686 7.50 7.42 0.8065 0.8380 11.90 1024.48 1.69299 0.992544 
0.687 4.60 4.52 0.7577 0.7913 11.87 1024.04 2.71703 0.41192 
0.689 -2.45 -2.53 0.7645 0.7814 11.88 1023.17 4.7638 -0.998679 
0.690 0.17 0.06 0.8588 0.8966 11.88 1022.73 5.78653 -0.476488 
0.691 5.06 4.96 0.7133 0.8397 11.89 1022.29 0.525634 0.501761 
0.692 7.54 7.46 0.8625 0.7271 11.89 1021.85 1.54749 0.999728 
0.693 5.26 5.16 0.6800 0.8765 11.87 1021.41 2.5689 0.541897 
0.695 -2.42 -2.53 0.7023 0.8597 11.88 1020.54 4.61042 -0.994805 
0.696 -0.48 -0.59 0.8158 0.7264 11.89 1020.1 5.63052 -0.607305 
0.697 4.33 4.25 0.8510 0.8264 11.89 1019.67 0.367002 0.358819 
0.698 7.46 7.37 0.7828 0.7157 11.90 1019.23 1.38623 0.983016 
0.700 1.15 1.07 0.7970 0.7567 11.86 1018.36 3.42338 -0.278076 
0.701 -2.26 -2.37 0.7159 0.7996 11.87 1017.92 4.4413 -0.963481 
0.702 -1.13 -1.21 0.8556 0.8229 11.89 1017.49 5.45879 -0.734137 
0.703 3.50 3.42 0.7669 0.8204 11.88 1017.05 0.192655 0.191466 
0.705 6.51 6.42 0.8026 0.7828 11.88 1016.18 2.22545 0.793259 
0.706 2.04 1.96 0.8107 0.6855 11.86 1015.74 3.24119 -0.0994368 
0.707 -1.95 -2.03 0.8467 0.8380 11.87 1015.31 4.2565 -0.897872 
0.708 -1.70 -1.78 0.8510 0.7120 11.88 1014.87 5.27138 -0.847791 
0.709 2.55 2.47 0.8410 0.8699 11.88 1014.44 0.00263375 0.00263374 
0.711 7.02 6.94 0.7839 0.8083 11.88 1013.57 2.03021 0.896312 
0.712 3.03 2.95 0.7884 0.7149 11.86 1013.14 3.04335 0.0980847 
0.713 -1.42 -1.50 0.7879 0.8077 11.87 1012.7 4.05605 -0.792234 
0.714 -2.14 -2.23 0.8415 0.8941 11.88 1012.27 5.06833 -0.937321 
0.716 6.16 6.07 0.8389 0.6948 11.89 1011.4 0.808382 0.72317 
0.717 7.40 7.29 0.7525 0.8185 11.89 1010.97 1.81935 0.969269 
0.718 4.08 3.99 0.7933 0.6864 11.87 1010.54 2.82989 0.306678 
0.719 -0.66 -0.77 0.7511 0.8523 11.87 1010.11 3.84 -0.642997 
0.721 0.48 0.40 0.8625 0.8407 11.88 1009.24 5.85891 -0.411659 
0.722 5.31 5.20 0.8049 0.7707 11.89 1008.81 0.584536 0.551812 
0.723 7.55 7.44 0.8012 0.8047 11.90 1008.38 1.59291 0.999755 
0.724 5.12 5.03 0.7707 0.7468 11.87 1007.95 2.60086 0.514766 
0.726 -2.42 -2.53 0.8378 0.8212 11.88 1007.08 4.61546 -0.995306 
0.727 -0.53 -0.61 0.8645 0.8424 11.88 1006.65 5.62211 -0.613969 
0.728 4.25 4.13 0.7427 0.8329 11.88 1006.22 0.345142 0.33833 
0.729 7.43 7.32 0.7524 0.7967 11.90 1005.79 1.35093 0.975927 
0.731 1.45 1.37 0.8067 0.8278 11.86 1004.93 3.36122 -0.217866 
0.732 -2.17 -2.23 0.8114 0.6881 11.87 1004.5 4.36572 -0.940509 
0.733 -1.41 -1.50 0.8319 0.8595 11.88 1004.07 5.36979 -0.791585 
0.734 2.99 2.91 0.7778 0.7646 11.88 1003.64 0.0902402 0.0901177 
0.736 6.87 6.78 0.7318 0.7048 11.89 1002.78 2.09623 0.865107 
0.737 2.76 2.67 0.8252 0.8172 11.86 1002.35 3.09858 0.0430005 
0.738 -1.55 -1.64 0.7379 0.8470 11.87 1001.92 4.1005 -0.818564 
0.739 -2.08 -2.17 0.8839 0.8442 11.89 1001.49 5.10199 -0.92506 
0.741 6.20 6.11 0.8745 0.8268 11.89 1000.63 0.820505 0.73149 
0.742 7.39 7.30 0.6657 0.7691 11.89 1000.21 1.82071 0.968933 
0.743 4.12 4.03 0.8036 0.8015 11.87 999.778 2.82049 0.315613 
0.744 -0.59 -0.68 0.8386 0.7440 11.86 999.35 3.81984 -0.627429 
0.746 0.30 0.21 0.7378 0.7863 11.88 998.495 5.81726 -0.449252 
0.747 5.08 4.99 0.8189 0.8209 11.89 998.067 0.532139 0.507378 
0.748 7.54 7.45 0.6853 0.7804 11.90 997.64 1.52978 0.999159 
0.749 5.43 5.34 0.8753 0.7767 11.88 997.213 2.52699 0.576632 
0.751 -2.36 -2.45 0.8510 0.7872 11.88 996.359 4.52014 -0.981576 
0.752 -0.93 -1.01 0.7144 0.8316 11.88 995.933 5.51607 -0.694062 
0.753 3.68 3.59 0.8010 0.8034 11.88 995.506 0.22839 0.22641 
0.755 6.52 6.46 0.7900 0.8230 11.87 994.654 2.21812 0.797698 
0.756 2.18 2.12 0.7583 0.6626 11.85 994.228 3.21235 -0.0707011 
0.757 -1.84 -1.90 0.8076 0.8808 11.87 993.803 4.20616 -0.874577 
0.758 -1.89 -1.95 0.7965 0.7267 11.87 993.377 5.19953 -0.883674 
0.760 6.45 6.39 0.7444 0.7190 11.90 992.527 0.901826 0.78446 
0.761 7.27 7.21 0.8246 0.7963 11.89 992.102 1.89393 0.948246 
0.762 3.80 3.73 0.7037 0.8385 11.86 991.677 2.8856 0.253201 
0.763 -0.82 -0.88 0.8491 0.7876 11.86 991.253 3.87686 -0.670784 
0.765 0.47 0.41 0.8846 0.8457 11.88 990.404 5.85809 -0.412408 
0.766 5.21 5.14 0.6761 0.6797 11.90 989.98 0.564885 0.535319 
0.767 7.53 7.47 0.7950 0.8275 11.89 989.556 1.55444 0.999866 
0.768 5.34 5.28 0.8116 0.6695 11.86 989.133 2.54357 0.563006 
0.770 -2.38 -2.44 0.7429 0.7454 11.88 988.286 4.52057 -0.981659 
0.771 -0.97 -1.03 0.8447 0.8196 11.88 987.863 5.50843 -0.69954 
0.772 3.59 3.52 0.7181 0.7614 11.88 987.44 0.212686 0.211086 
0.774 6.61 6.55 0.6717 0.7350 11.88 986.595 2.1863 0.816484 
0.775 2.38 2.31 0.8532 0.7546 11.86 986.172 3.17247 -0.0308721 
0.776 -1.72 -1.78 0.6970 0.8136 11.87 985.75 4.15822 -0.850338 
0.777 -2.01 -2.07 0.8042 0.8111 11.88 985.328 5.14355 -0.908482 
0.779 6.22 6.16 0.8254 0.8178 11.89 984.484 0.829753 0.737764 
0.780 7.38 7.32 0.7555 0.6622 11.89 984.063 1.81382 0.970616 
0.781 4.22 4.16 0.8032 0.8595 11.86 983.642 2.79746 0.337383 
0.782 -0.45 -0.51 0.7843 0.7137 11.87 983.221 3.78068 -0.596461 
0.784 -0.03 -0.09 0.7787 0.7389 11.89 982.379 5.74586 -0.511843 
0.785 4.68 4.62 0.8424 0.8015 11.89 981.958 0.444629 0.430123 
0.786 7.48 7.42 0.6957 0.8436 11.90 981.538 1.42617 0.989559 
0.788 1.31 1.25 0.6911 0.6694 11.85 980.698 3.38798 -0.243905 
0.789 -2.18 -2.24 0.8634 0.8420 11.89 980.278 4.36826 -0.94137 
0.790 -1.49 -1.55 0.7107 0.7219 11.88 979.858 5.34812 -0.804638 
0.791 2.75 2.69 0.8140 0.8501 11.88 979.439 0.0443727 0.0443582 
0.793 7.06 7.03 0.7811 0.8146 11.88 978.6 2.00199 0.908466 
0.794 3.32 3.29 0.7139 0.7162 11.85 978.181 2.98017 0.160719 
0.795 -1.13 -1.16 0.8182 0.8237 11.86 977.763 3.95794 -0.728647 
0.797 0.70 0.67 0.8558 0.7943 11.88 976.926 5.91221 -0.362529 
0.798 5.36 5.33 0.7525 0.7693 11.89 976.507 0.605528 0.569196 
0.799 7.52 7.48 0.7780 0.7575 11.89 976.089 1.58162 0.999941 
0.800 5.27 5.24 0.8020 0.8043 11.87 975.671 2.55729 0.551619 
0.802 -2.38 -2.41 0.8480 0.7078 11.88 974.836 4.50738 -0.979059 
0.803 -1.07 -1.11 0.8488 0.8589 11.88 974.419 5.4818 -0.718323 
0.804 3.38 3.34 0.8337 0.6999 11.88 974.002 0.172613 0.171757 
0.806 6.78 6.75 0.7997 0.6793 11.88 973.168 2.11937 0.853271 
0.807 2.76 2.73 0.7842 0.8056 11.85 972.751 3.09212 0.0494552 
0.808 -1.47 -1.50 0.7865 0.7282 11.87 972.335 4.06445 -0.797331 
0.809 -2.22 -2.26 0.8386 0.8214 11.89 971.919 5.03637 -0.947975 
0.811 5.72 5.69 0.7980 0.8381 11.90 971.087 0.695774 0.64098 
0.812 7.49 7.46 0.7456 0.6759 11.90 970.671 1.66645 0.995429 
0.813 4.93 4.90 0.7840 0.8690 11.87 970.255 2.6367 0.483713 
0.815 -2.42 -2.48 0.8060 0.8584 11.87 969.425 4.57596 -0.990709 
0.816 -0.85 -0.88 0.8571 0.7284 11.88 969.01 5.54497 -0.672966 
0.817 3.67 3.61 0.8030 0.8300 11.88 968.595 0.230384 0.228351 
0.819 6.67 6.61 0.7636 0.7991 11.88 967.766 2.16633 0.827849 
0.820 2.56 2.52 0.7362 0.7460 11.85 967.351 3.13368 0.00791127 
0.821 -1.58 -1.61 0.8243 0.7946 11.86 966.937 4.10062 -0.818632 
0.822 -2.16 -2.22 0.7769 0.8343 11.88 966.523 5.06714 -0.937732 
0.824 5.80 5.76 0.8694 0.8275 11.89 965.696 0.715761 0.656192 
0.825 7.49 7.45 0.7729 0.7942 11.90 965.282 1.68104 0.993929 
0.826 4.88 4.88 0.7942 0.6633 11.87 964.869 2.64591 0.47563 
0.828 -2.44 -2.47 0.8037 0.6967 11.88 964.043 4.57441 -0.990496 
0.829 -0.87 -0.91 0.8195 0.8654 11.88 963.63 5.53804 -0.678076 
0.830 3.58 3.58 0.9271 0.7667 11.89 963.218 0.218075 0.216351 
0.832 6.70 6.70 0.7936 0.7854 11.88 962.393 2.14327 0.840561 
0.833 2.68 2.68 0.7861 0.8224 11.86 961.981 3.10526 0.0363291 
0.834 -1.49 -1.50 0.7716 0.8541 11.87 961.57 4.06682 -0.798761 
0.835 -2.25 -2.25 0.8470 0.8526 11.89 961.158 5.02798 -0.950612 
0.837 5.59 5.59 0.8006 0.8419 11.89 960.335 0.665879 0.617751 
0.838 7.49 7.49 0.7840 0.7777 11.89 959.924 1.6258 0.998488 
0.839 5.14 5.14 0.7667 0.8193 11.87 959.513 2.58532 0.528028 
0.841 -2.39 -2.39 0.8224 0.8361 11.89 958.692 4.50311 -0.978181 
0.842 -1.16 -1.16 0.7945 0.8021 11.88 958.281 5.46139 -0.732369 
0.843 3.18 3.18 0.8270 0.8419 11.89 957.871 0.136077 0.135657 
0.845 6.93 6.93 0.7724 0.7800 11.89 957.051 2.05059 0.887091 
0.846 3.17 3.17 0.7969 0.7925 11.86 956.641 3.00723 0.133959 
0.847 -1.16 -1.16 0.7954 0.8077 11.87 956.232 3.96346 -0.732419 
0.849 0.51 0.51 0.8048 0.8361 11.88 955.413 5.8747 -0.397222 
0.850 5.10 5.10 0.8176 0.8032 11.89 955.004 0.546516 0.519714 
0.851 7.49 7.49 0.7688 0.8336 11.89 954.595 1.50111 0.997573 
0.853 1.18 1.18 0.7873 0.8555 11.85 953.778 3.40908 -0.264305 
0.854 -2.20 -2.20 0.8078 0.7751 11.87 953.37 4.36245 -0.939392 
0.855 -1.62 -1.62 0.8374 0.8485 11.88 952.962 5.31541 -0.823628 
0.857 6.53 6.53 0.7814 0.8156 11.90 952.146 0.936922 0.805739 
0.858 7.25 7.25 0.7742 0.7837 11.89 951.738 1.88866 0.949905 
0.859 3.98 3.99 0.7635 0.7909 11.85 951.331 2.83999 0.29705 
0.860 -0.52 -0.52 0.7420 0.7399 11.86 950.924 3.79091 -0.604646 
0.862 -0.29 -0.29 0.7654 0.7831 11.88 950.109 5.69154 -0.557728 
0.863 4.25 4.25 0.8041 0.8544 11.88 949.703 0.358057 0.350455 
0.864 7.33 7.33 0.8251 0.7965 11.90 949.296 1.30735 0.965499 
0.866 2.18 2.19 0.8024 0.7921 11.85 948.484 3.20473 -0.0630919 
0.867 -1.74 -1.74 0.8176 0.8264 11.87 948.077 4.1528 -0.847475 
0.868 -2.13 -2.13 0.7698 0.8048 11.88 947.672 5.10048 -0.925635 
0.870 5.76 5.77 0.7432 0.7975 11.89 946.86 0.711416 0.652907 
0.871 7.48 7.48 0.7632 0.7941 11.89 946.455 1.65787 0.996211 
0.872 5.06 5.06 0.7847 0.7975 11.86 946.05 2.60392 0.512138 
0.874 -2.38 -2.38 0.8298 0.7661 11.88 945.24 4.49481 -0.976422 
0.875 -1.24 -1.23 0.8349 0.8044 11.88 944.835 5.43964 -0.747004 
0.876 3.01 2.99 0.8129 0.8642 11.88 944.431 0.100886 0.100715 
0.878 7.07 7.07 0.7827 0.7852 11.88 943.622 1.98853 0.914009 
0.879 3.54 3.54 0.7611 0.8047 11.86 943.218 2.93175 0.208303 
0.880 -0.83 -0.85 0.7701 0.7646 11.86 942.814 3.87457 -0.669083 
0.882 0.01 -0.01 0.7778 0.8637 11.88 942.007 5.75899 -0.50052 
0.883 4.54 4.52 0.7902 0.6984 11.89 941.604 0.417405 0.405389 
0.884 7.40 7.38 0.7851 0.8430 11.90 941.201 1.35861 0.977572 
0.886 2.02 2.00 0.7925 0.8576 11.85 940.395 3.2398 -0.0980488 
0.887 -1.80 -1.82 0.7995 0.7216 11.87 939.993 4.17979 -0.861491 
0.888 -2.08 -2.10 0.8411 0.8383 11.88 939.59 5.11938 -0.918315 
0.890 5.78 5.76 0.7894 0.8145 11.89 938.786 0.714171 0.654991 
0.891 7.49 7.47 0.7498 0.7473 11.89 938.384 1.65256 0.99666 
0.892 5.13 5.11 0.7812 0.7640 11.86 937.982 2.59054 0.523586 
0.894 -2.34 -2.36 0.7581 0.8106 11.88 937.179 4.4653 -0.969628 
0.895 -1.35 -1.37 0.8319 0.8615 11.88 936.778 5.40208 -0.771445 
0.896 2.79 2.77 0.7515 0.8304 11.88 936.377 0.0552675 0.0552394 
0.898 7.20 7.18 0.7726 0.8344 11.89 935.576 1.92682 0.93729 
0.899 3.89 3.87 0.7627 0.6706 11.86 935.175 2.86199 0.27597 
0.900 -0.52 -0.57 0.7524 0.8442 11.86 934.775 3.79677 -0.609299 
0.902 -0.39 -0.41 0.7813 0.8362 11.88 933.974 5.66512 -0.579461 
0.903 4.06 4.04 0.7828 0.7324 11.89 933.575 0.315507 0.310299 
0.905 6.62 6.57 0.8232 0.8412 11.87 932.775 2.18146 0.819269 
0.906 2.66 2.62 0.6972 0.7807 11.86 932.376 3.11383 0.0277557 
0.907 -1.41 -1.45 0.8397 0.6854 11.87 931.977 4.04581 -0.785942 
0.909 0.68 0.66 0.8402 0.7167 11.88 931.179 5.90857 -0.365917 
0.910 5.17 5.10 0.6750 0.8324 11.89 930.78 0.556163 0.527931 
0.911 7.50 7.46 0.7968 0.6881 11.89 930.382 1.48654 0.996453 
0.913 1.51 1.46 0.8169 0.7217 11.85 929.586 3.34611 -0.203098 
0.914 -2.01 -2.05 0.7331 0.8043 11.87 929.188 4.2753 -0.905988 
0.915 -1.90 -1.92 0.8405 0.7863 11.88 928.79 5.20409 -0.881531 
0.917 6.01 6.00 0.7911 0.7832 11.89 927.995 0.777292 0.701352 
0.918 7.48 7.43 0.6720 0.7703 11.89 927.597 1.70489 0.991023 
0.919 4.97 4.90 0.8108 0.8115 11.86 927.2 2.63209 0.487743 
0.921 -2.35 -2.39 0.7854 0.7090 11.88 926.407 4.4853 -0.974326 
0.922 -1.30 -1.35 0.8356 0.8730 11.88 926.01 5.41131 -0.765537 
0.923 2.79 2.75 0.8348 0.7701 11.88 925.614 0.0537378 0.053712 
0.925 7.25 7.20 0.7745 0.7878 11.88 924.821 1.90378 0.945073 
0.926 4.08 4.00 0.7505 0.8173 11.86 924.425 2.8282 0.308287 
0.928 -2.47 -2.52 0.7595 0.8523 11.88 923.634 4.67586 -0.999333 
0.929 -0.64 -0.68 0.8393 0.8867 11.88 923.238 5.5991 -0.631962 
0.930 3.70 3.66 0.7752 0.8699 11.88 922.843 0.238761 0.236499 
0.932 6.88 6.83 0.7897 0.8356 11.87 922.053 2.08326 0.871538 
0.933 3.20 3.16 0.7885 0.7979 11.85 921.658 3.00492 0.136247 
0.934 -1.01 -1.05 0.7506 0.8509 11.86 921.264 3.92618 -0.706536 
0.936 0.06 0.01 0.8606 0.8524 11.88 920.475 5.76753 -0.493106 
0.937 4.50 4.43 0.8009 0.7960 11.89 920.081 0.404425 0.393491 
0.938 7.37 7.33 0.7926 0.7864 11.89 919.687 1.32411 0.969728 
0.940 2.42 2.37 0.8000 0.7866 11.86 918.9 3.16231 -0.0207122 
0.941 -1.51 -1.56 0.8439 0.7967 11.87 918.507 4.08081 -0.807098 
0.943 0.74 0.67 0.8340 0.7983 11.88 917.72 5.91665 -0.358386 
0.944 5.14 5.09 0.7452 0.7426 11.89 917.327 0.550789 0.523359 
0.945 7.50 7.45 0.7610 0.7732 11.89 916.935 1.46772 0.994693 
0.947 1.73 1.69 0.7847 0.7912 11.86 916.15 3.30042 -0.158156 
0.948 -1.87 -1.92 0.7994 0.8616 11.87 915.758 4.21617 -0.87939 
0.949 -2.04 -2.09 0.8161 0.7798 11.88 915.366 5.13154 -0.913435 
0.951 5.66 5.61 0.7745 0.7985 11.89 914.582 0.677909 0.627165 
0.952 7.52 7.48 0.7187 0.8050 11.90 914.19 1.5921 0.999773 
0.954 1.17 1.09 0.7064 0.7894 11.86 913.408 3.41931 -0.274157 
0.955 -2.12 -2.17 0.8353 0.7407 11.88 913.017 4.33232 -0.92864 
0.956 -1.78 -1.83 0.7809 0.8147 11.88 912.626 5.24495 -0.86151 
0.958 6.06 6.01 0.7878 0.7537 11.89 911.845 0.785843 0.707421 
0.959 7.50 7.42 0.7865 0.7803 11.89 911.454 1.6973 0.992009 
0.960 5.06 5.02 0.7955 0.8018 11.87 911.064 2.60836 0.508319 
0.962 -2.28 -2.32 0.7889 0.8310 11.88 910.284 4.42932 -0.960203 
0.963 -1.53 -1.57 0.8362 0.8020 11.88 909.894 5.33921 -0.809894 
0.965 6.36 6.31 0.7782 0.7959 11.89 909.116 0.874649 0.767318 
0.966 7.41 7.36 0.6642 0.7819 11.89 908.726 1.78338 0.97749 
0.967 4.70 4.65 0.7702 0.7944 11.86 908.337 2.69171 0.434858 
0.969 -2.36 -2.43 0.7893 0.7655 11.88 907.56 4.50722 -0.979027 
0.970 -1.29 -1.34 0.8419 0.8568 11.88 907.171 5.41439 -0.76355 
0.971 2.73 2.65 0.7995 0.8607 11.88 906.783 0.0379893 0.0379802 
0.973 7.33 7.28 0.7687 0.7793 11.89 906.007 1.85039 0.961168 
0.974 4.42 4.34 0.7495 0.8080 11.87 905.619 2.75601 0.3761 
0.976 -2.41 -2.48 0.7982 0.8976 11.88 904.843 4.56608 -0.989316 
0.977 -1.09 -1.17 0.8360 0.8556 11.88 904.456 5.47054 -0.726109 
0.978 2.99 2.92 0.7648 0.6975 11.88 904.069 0.0914232 0.0912959 
0.980 7.28 7.18 0.6786 0.6699 11.89 903.295 1.8984 0.946816 
0.981 4.21 4.13 0.7844 0.8408 11.87 902.908 2.80131 0.333755 
0.983 -2.43 -2.51 0.8136 0.8289 11.88 902.135 4.60597 -0.994342 
0.984 -0.96 -1.04 0.8593 0.7543 11.88 901.749 5.50771 -0.700052 
0.985 3.16 3.09 0.7954 0.8207 11.88 901.363 0.125892 0.12556 
0.987 7.22 7.15 0.7531 0.7498 11.89 900.591 1.92746 0.937067 
0.988 4.09 3.99 0.6772 0.7606 11.86 900.206 2.82767 0.308795 
0.990 -2.44 -2.52 0.7750 0.8490 11.88 899.435 4.62692 -0.99635 
0.991 -0.90 -0.97 0.8460 0.8288 11.88 899.05 5.52597 -0.686899 
0.992 3.24 3.17 0.7590 0.6816 11.88 898.665 0.141452 0.140981 
0.994 7.20 7.13 0.7852 0.6633 11.88 897.896 1.93763 0.933468 
0.995 4.05 3.97 0.7719 0.8673 11.86 897.512 2.83514 0.301678 
0.997 -2.44 -2.52 0.8182 0.8308 11.88 896.743 4.62901 -0.996526 
0.998 -0.90 -0.97 0.8195 0.7482 11.88 896.359 5.52537 -0.687336 
0.999 3.23 3.15 0.7967 0.8134 11.89 895.976 0.138161 0.137722 
1.001 7.22 7.14 0.7691 0.7681 11.88 895.209 1.92896 0.936542 
1.002 4.10 4.02 0.6951 0.6681 11.86 894.825 2.82379 0.312483 
1.004 -2.42 -2.53 0.7803 0.7294 11.88 894.059 4.61229 -0.994994 
1.005 -0.95 -1.06 0.8571 0.8643 11.88 893.677 5.50597 -0.7013 
1.006 3.13 3.03 0.7531 0.7170 11.88 893.294 0.116074 0.115813 
1.008 7.28 7.18 0.7993 0.7003 11.88 892.529 1.90151 0.945809 
1.009 4.26 4.15 0.7847 0.7962 11.86 892.147 2.79366 0.340953 
1.011 -2.40 -2.51 0.8372 0.7998 11.88 891.384 4.57681 -0.990823 
1.012 -1.09 -1.19 0.7932 0.8178 11.88 891.002 5.46781 -0.727981 
1.013 2.93 2.82 0.8536 0.7989 11.88 890.62 0.0752475 0.0751765 
1.015 7.35 7.25 0.7720 0.7650 11.89 889.858 1.85534 0.959789 
1.016 4.49 4.38 0.7309 0.6689 11.86 889.477 2.74482 0.386442 
1.018 -2.36 -2.46 0.8487 0.7047 11.88 888.716 4.52263 -0.98205 
1.019 -1.27 -1.38 0.8535 0.8685 11.88 888.335 5.41097 -0.765756 
1.020 2.63 2.52 0.8408 0.7152 11.88 887.955 0.0157387 0.015738 
1.022 7.43 7.33 0.7996 0.6990 11.89 887.195 1.79051 0.97596 
1.023 4.79 4.68 0.7779 0.8022 11.86 886.815 2.67732 0.44777 
1.025 -2.27 -2.38 0.8392 0.8398 11.88 886.056 4.44981 -0.965725 
1.026 -1.52 -1.60 0.8956 0.7087 11.88 885.677 5.33549 -0.812072 
1.028 6.19 6.14 0.9411 0.6825 11.90 884.918 0.822521 0.732863 
1.029 7.49 7.41 0.7165 0.8312 11.90 884.539 1.70706 0.99073 
1.030 5.16 5.07 0.7254 0.6832 11.87 884.161 2.59122 0.523004 
1.032 -2.16 -2.22 0.8677 0.7549 11.88 883.404 4.35841 -0.938 
1.033 -1.79 -1.84 0.7516 0.8361 11.88 883.026 5.24143 -0.86329 
1.035 5.84 5.78 0.6994 0.7657 11.89 882.27 0.723165 0.661761 
1.036 7.52 7.47 0.8435 0.7407 11.90 881.892 1.60506 0.999413 
1.038 1.41 1.35 0.8322 0.8052 11.85 881.137 3.36771 -0.224194 
1.039 -1.94 -2.00 0.7104 0.8123 11.87 880.76 4.24847 -0.894305 
1.040 -2.04 -2.10 0.8185 0.7153 11.88 880.383 5.12885 -0.914526 
1.042 5.37 5.32 0.8261 0.6884 11.89 879.629 0.605301 0.56901 
1.043 7.51 7.45 0.7561 0.8680 11.89 879.253 1.48455 0.996283 
1.045 2.03 1.97 0.7775 0.8143 11.85 878.5 3.24193 -0.100169 
1.046 -1.62 -1.68 0.8515 0.7356 11.87 878.124 4.12005 -0.829639 
1.048 0.56 0.47 0.8700 0.8709 11.88 877.372 5.87517 -0.396785 
1.049 4.80 4.72 0.7080 0.8415 11.89 876.997 0.468985 0.451981 
1.050 7.41 7.33 0.8529 0.7869 11.90 876.621 1.34561 0.974752 
1.052 2.76 2.68 0.8837 0.7455 11.86 875.871 3.09772 0.0438558 
1.053 -1.15 -1.24 0.7036 0.8442 11.87 875.496 3.97322 -0.739028 
1.055 -0.12 -0.20 0.8777 0.8503 11.88 874.746 5.72309 -0.531271 
1.056 4.09 4.00 0.8679 0.7750 11.89 874.372 0.314272 0.309124 
1.058 6.95 6.87 0.8048 0.7888 11.88 873.623 2.06189 0.881817 
1.059 3.57 3.48 0.6833 0.7930 11.86 873.249 2.93514 0.204988 
1.060 -0.55 -0.63 0.8514 0.8067 11.87 872.875 3.80802 -0.618179 
1.062 -0.79 -0.88 0.8672 0.8488 11.89 872.128 5.55265 -0.667271 
1.063 3.25 3.16 0.7048 0.8305 11.89 871.755 0.141216 0.140747 
1.065 7.30 7.21 0.7998 0.8013 11.89 871.009 1.88361 0.951473 
1.066 4.43 4.35 0.7973 0.7882 11.86 870.636 2.75424 0.377737 
1.068 -2.34 -2.42 0.8201 0.7842 11.88 869.89 4.49439 -0.976333 
1.069 -1.43 -1.52 0.8002 0.8532 11.88 869.518 5.36391 -0.795161 
1.071 6.21 6.09 0.7392 0.8726 11.89 868.774 0.818647 0.730222 
1.072 7.52 7.41 0.8183 0.7781 11.89 868.402 1.68705 0.99325 
1.073 5.32 5.21 0.6925 0.7997 11.86 868.03 2.55508 0.553461 
1.075 -2.00 -2.12 0.7181 0.8518 11.88 867.287 4.29002 -0.912122 
1.076 -1.97 -2.06 0.8347 0.7854 11.89 866.916 5.15694 -0.902804 
1.078 5.41 5.29 0.7914 0.7996 11.89 866.173 0.606471 0.569971 
1.079 7.53 7.42 0.8244 0.7983 11.90 865.803 1.47227 0.995151 
1.081 2.25 2.14 0.7212 0.8047 11.85 865.061 3.20277 -0.0611356 
1.082 -1.45 -1.54 0.8299 0.7929 11.87 864.691 4.06746 -0.799141 
1.084 0.20 0.11 0.8538 0.8300 11.88 863.951 5.79573 -0.46838 
1.085 4.38 4.29 0.7496 0.8316 11.89 863.581 0.376125 0.367319 
1.087 6.87 6.75 0.6611 0.8018 11.88 862.842 2.10218 0.862108 
1.088 3.44 3.32 0.8016 0.7960 11.86 862.472 2.96465 0.17602 
1.089 -0.62 -0.71 0.8369 0.8481 11.87 862.103 3.82675 -0.632798 
1.091 -0.80 -0.89 0.8418 0.8693 11.88 861.365 5.54985 -0.669349 
1.092 3.18 3.09 0.8028 0.7695 11.88 860.996 0.127664 0.127317 
1.094 7.35 7.26 0.7607 0.7748 11.88 860.259 1.84855 0.961674 
1.095 4.64 4.55 0.7618 0.8008 11.86 859.891 2.70844 0.419733 
1.097 -2.25 -2.34 0.8006 0.8353 11.88 859.155 4.42712 -0.959586 
1.098 -1.66 -1.74 0.8658 0.7647 11.88 858.787 5.28591 -0.839998 
1.100 5.84 5.75 0.7946 0.7975 11.89 858.052 0.719192 0.658777 
1.101 7.54 7.46 0.7858 0.8240 11.90 857.685 1.57688 0.999982 
1.103 1.80 1.71 0.8210 0.8222 11.86 856.95 3.29114 -0.148995 
1.104 -1.67 -1.78 0.8346 0.9097 11.88 856.583 4.14773 -0.84477 
1.106 0.50 0.39 0.8440 0.8118 11.88 855.85 5.8598 -0.410853 
1.107 4.65 4.54 0.7751 0.8132 11.89 855.484 0.432094 0.418774 
1.108 7.36 7.24 0.7809 0.7812 11.90 855.118 1.28721 0.960059 
1.110 3.28 3.17 0.7868 0.7981 11.86 854.386 2.99635 0.144733 
1.111 -0.69 -0.81 0.7557 0.8195 11.87 854.02 3.85037 -0.650905 
1.113 -0.76 -0.88 0.8537 0.7860 11.88 853.289 5.55731 -0.663789 
1.114 3.21 3.06 0.8411 0.8557 11.88 852.923 0.12705 0.126709 
1.116 7.39 7.27 0.7766 0.7707 11.89 852.193 1.8318 0.966131 
1.117 4.77 4.65 0.8032 0.8023 11.86 851.828 2.68363 0.442122 
1.119 -2.18 -2.29 0.8703 0.8963 11.88 851.099 4.38619 -0.947268 
1.120 -1.77 -1.89 0.7622 0.8634 11.88 850.735 5.23693 -0.865555 
1.122 5.60 5.48 0.6987 0.8454 11.89 850.007 0.65412 0.608461 
1.123 7.55 7.43 0.8514 0.6716 11.89 849.643 1.50376 0.997754 
1.125 2.26 2.14 0.7883 0.6981 11.85 848.915 3.20196 -0.0603279 
1.126 -1.38 -1.50 0.8614 0.8227 11.87 848.552 4.05051 -0.788838 
1.128 0.00 -0.12 0.7525 0.8394 11.89 847.826 5.74652 -0.51127 
1.129 4.09 3.97 0.8358 0.7609 11.89 847.463 0.310801 0.305822 
1.131 7.10 6.97 0.8476 0.7359 11.88 846.737 2.00464 0.907357 
1.132 3.99 3.87 0.6924 0.7584 11.85 846.375 2.85101 0.286508 
1.134 -2.37 -2.49 0.7259 0.8192 11.88 845.65 4.54268 -0.985633 
1.135 -1.34 -1.46 0.8306 0.6992 11.88 845.288 5.38796 -0.780348 
1.137 6.13 6.00 0.8332 0.6677 11.90 844.565 0.794269 0.713351 
1.138 7.55 7.43 0.7591 0.8483 11.89 844.203 1.63847 0.997711 
1.140 1.65 1.52 0.7823 0.8169 11.85 843.48 3.32579 -0.183161 
1.141 -1.73 -1.83 0.8501 0.7387 11.87 843.119 4.16891 -0.855916 
1.143 0.47 0.37 0.8550 0.8887 11.89 842.397 5.85407 -0.416068 
1.144 4.55 4.46 0.7693 0.8287 11.89 842.037 0.412919 0.401285 
1.146 6.88 6.78 0.8012 0.8529 11.87 841.316 2.09591 0.865266 
1.147 3.56 3.47 0.8016 0.6920 11.85 840.956 2.93687 0.203298 
1.148 -0.42 -0.52 0.7695 0.8379 11.87 840.596 3.77746 -0.593878 
1.150 -1.12 -1.22 0.8784 0.8345 11.88 839.876 5.45757 -0.734962 
1.151 2.62 2.52 0.8521 0.7328 11.88 839.517 0.0139062 0.0139057 
1.153 7.51 7.41 0.7701 0.7303 11.88 838.798 1.69186 0.992681 
1.154 5.42 5.32 0.7374 0.7556 11.86 838.439 2.5303 0.573926 
1.156 -1.82 -1.92 0.7808 0.8089 11.87 837.721 4.2061 -0.874551 
1.157 -2.18 -2.28 0.8620 0.8592 11.88 837.362 5.04346 -0.945694 
1.159 4.65 4.55 0.8134 0.6746 11.89 836.646 0.433928 0.420438 
1.160 7.33 7.23 0.8131 0.8339 11.89 836.287 1.27022 0.955165 
1.162 3.54 3.44 0.7805 0.8707 11.85 835.572 2.94172 0.198548 
1.163 -0.42 -0.52 0.8097 0.7278 11.86 835.214 3.77693 -0.593449 
1.165 -1.18 -1.25 0.7814 0.7525 11.89 834.499 5.44629 -0.74257 
1.167 6.23 6.16 0.6950 0.8563 11.89 833.784 0.831026 0.738624 
1.168 7.51 7.44 0.8447 0.7699 11.89 833.428 1.66445 0.995617 
1.170 1.60 1.52 0.8590 0.8804 11.85 832.714 3.33024 -0.187529 
1.171 -1.73 -1.80 0.7173 0.7303 11.87 832.358 4.1626 -0.852633 
1.173 0.33 0.26 0.8834 0.7286 11.88 831.645 5.82624 -0.441207 
1.174 4.36 4.29 0.8683 0.8190 11.89 831.289 0.374346 0.365664 
1.176 7.00 6.93 0.8140 0.8000 11.87 830.577 2.03586 0.893794 
1.177 3.91 3.81 0.6969 0.9864 11.84 830.222 2.86608 0.272041 
1.179 -2.36 -2.46 0.7312 0.8199 11.88 829.511 4.52546 -0.982579 
1.180 -1.45 -1.55 0.8853 0.8302 11.88 829.156 5.35461 -0.800766 
1.182 5.88 5.78 0.7977 0.7812 11.89 828.446 0.728675 0.665881 
1.183 7.55 7.45 0.7974 0.6487 11.89 828.092 1.55677 0.999902 
1.185 2.20 2.10 0.7725 0.6696 11.85 827.383 3.21189 -0.0702354 
1.186 -1.36 -1.46 0.8217 0.8463 11.87 827.028 4.03891 -0.781659 
1.188 -0.24 -0.34 0.8805 0.8309 11.87 826.32 5.69191 -0.557421 
1.189 3.71 3.61 0.7703 0.7233 11.88 825.967 0.234691 0.232542 
1.191 7.30 7.20 0.6922 0.8262 11.88 825.26 1.88556 0.950868 
1.192 4.64 4.54 0.8244 0.7677 11.85 824.906 2.71047 0.417891 
1.194 -2.15 -2.23 0.8628 0.8456 11.88 824.2 4.35922 -0.938283 
1.195 -1.92 -1.99 0.7877 0.7190 11.89 823.847 5.18307 -0.891259 
1.197 5.13 5.06 0.8503 0.6987 11.89 823.142 0.546522 0.519719 
1.198 7.44 7.36 0.7799 0.8047 11.90 822.79 1.36931 0.979771 
1.200 3.17 3.10 0.8026 0.7928 11.85 822.085 3.01383 0.127411 
1.201 -0.66 -0.73 0.7778 0.7629 11.87 821.733 3.83557 -0.639598 
1.203 -1.07 -1.14 0.7942 0.7969 11.88 821.03 5.47798 -0.720973 
1.204 2.61 2.54 0.8495 0.7892 11.88 820.678 0.0154731 0.0154724 
1.206 7.52 7.44 0.7790 0.7526 11.89 819.976 1.65578 0.996391 
1.208 1.77 1.70 0.8077 0.8480 11.86 819.274 3.29468 -0.152485 
1.209 -1.59 -1.67 0.8203 0.6976 11.88 818.923 4.1136 -0.826018 
1.211 -0.00 -0.08 0.8444 0.7167 11.88 818.222 5.75039 -0.507941 
1.212 3.94 3.87 0.8403 0.7979 11.89 817.872 0.28508 0.281234 
1.214 7.24 7.16 0.7749 0.7948 11.88 817.172 1.91977 0.939723 
1.215 4.51 4.43 0.7491 0.8367 11.85 816.822 2.7366 0.394016 
1.217 -2.18 -2.23 0.8994 0.6939 11.88 816.123 4.36919 -0.941683 
1.218 -1.93 -1.98 0.7191 0.8582 11.88 815.773 5.18496 -0.890399 
1.220 5.06 5.01 0.8556 0.8439 11.89 815.075 0.532277 0.507497 
1.221 7.40 7.35 0.8386 0.6674 11.89 814.726 1.347 0.975063 
1.223 3.35 3.30 0.8086 0.7155 11.84 814.029 2.97541 0.165419 
1.224 -0.49 -0.54 0.7245 0.7984 11.86 813.68 3.78909 -0.603192 
1.226 -1.29 -1.34 0.7251 0.7973 11.89 812.984 5.4154 -0.762896 
1.228 5.96 5.91 0.6864 0.7488 11.89 812.288 0.757143 0.686848 
1.229 7.52 7.48 0.8004 0.7995 11.89 811.94 1.56908 0.999999 
1.231 2.26 2.24 0.8153 0.7841 11.85 811.245 3.19192 -0.0503059 
1.232 -1.27 -1.32 0.7991 0.8366 11.88 810.898 4.00282 -0.758641 
1.234 -0.54 -0.59 0.8220 0.8629 11.88 810.203 5.62357 -0.612812 
1.235 3.27 3.23 0.8589 0.6950 11.88 809.857 0.150242 0.149677 
1.237 7.41 7.39 0.8357 0.7531 11.88 809.163 1.76892 0.980439 
1.238 5.18 5.16 0.6985 0.7720 11.86 808.817 2.57773 0.534453 
1.240 -1.82 -1.87 0.7241 0.8445 11.87 808.124 4.19433 -0.86878 
1.242 0.23 0.21 0.7106 0.8670 11.88 807.433 5.80954 -0.456135 
1.243 4.14 4.13 0.7929 0.6812 11.88 807.087 0.33344 0.327295 
1.245 7.16 7.14 0.7671 0.6714 11.88 806.396 1.94658 0.930221 
1.246 4.42 4.37 0.7041 0.8158 11.84 806.051 2.75263 0.379231 
1.248 -2.19 -2.21 0.7294 0.8306 11.88 805.361 4.36369 -0.93982 
1.249 -1.98 -2.00 0.8654 0.7861 11.88 805.016 5.16871 -0.897679 
1.251 4.88 4.87 0.7898 0.7547 11.89 804.327 0.494524 0.474612 
1.252 7.32 7.31 0.7876 0.7458 11.89 803.983 1.29851 0.963158 
1.254 3.68 3.66 0.8055 0.7887 11.85 803.294 2.90544 0.233965 
1.256 -2.39 -2.41 0.8327 0.8621 11.87 802.607 4.511 -0.979789 
1.257 -1.62 -1.63 0.8382 0.7155 11.88 802.263 5.31326 -0.824844 
1.259 5.47 5.45 0.7821 0.6892 11.88 801.576 0.63357 0.592026 
1.260 7.46 7.45 0.7877 0.7979 11.88 801.233 1.4348 0.990767 
1.262 3.03 3.02 0.7544 0.8199 11.85 800.547 3.03624 0.105157 
1.263 -0.69 -0.71 0.8366 0.8952 11.87 800.205 3.83645 -0.640272 
1.265 -1.24 -1.25 0.8651 0.7148 11.88 799.52 5.43583 -0.749534 
1.267 5.92 5.90 0.7822 0.6789 11.89 798.835 0.750654 0.682117 
1.268 7.50 7.49 0.7910 0.8287 11.88 798.493 1.54915 0.999766 
1.270 2.49 2.48 0.7616 0.8303 11.84 797.81 3.14511 -0.00351532 
1.271 -1.08 -1.09 0.8212 0.7584 11.86 797.468 3.94258 -0.718041 
1.273 -0.89 -0.90 0.8627 0.7944 11.87 796.785 5.53649 -0.679218 
1.274 2.75 2.74 0.7634 0.7878 11.88 796.444 0.0497472 0.0497267 
1.276 7.49 7.48 0.7800 0.7464 11.88 795.762 1.64161 0.997494 
1.278 2.05 2.04 0.8087 0.7952 11.84 795.081 3.23212 -0.0904 
1.279 -1.36 -1.38 0.8240 0.7108 11.87 794.741 4.02686 -0.774082 
1.281 -0.59 -0.60 0.8329 0.7187 11.88 794.061 5.61532 -0.619313 
1.282 3.16 3.10 0.8055 0.8428 11.89 793.721 0.125854 0.125522 
1.284 7.47 7.43 0.7799 0.7985 11.88 793.041 1.71228 0.990008 
1.286 1.74 1.71 0.7584 0.8236 11.85 792.362 3.29734 -0.155118 
1.287 -1.53 -1.59 0.8387 0.8787 11.87 792.023 4.08936 -0.812116 
1.289 -0.34 -0.40 0.8627 0.7762 11.88 791.345 5.67239 -0.573518 
1.290 3.43 3.37 0.7537 0.8542 11.89 791.006 0.180213 0.179239 
1.292 7.44 7.38 0.7865 0.8190 11.88 790.329 1.76121 0.981926 
1.293 5.31 5.25 0.7709 0.8012 11.85 789.991 2.5512 0.556687 
1.295 -1.65 -1.71 0.8232 0.8083 11.87 789.315 4.13017 -0.835243 
1.297 -0.19 -0.25 0.7593 0.8248 11.88 788.639 5.70778 -0.544173 
1.298 3.57 3.54 0.8354 0.8193 11.89 788.301 0.212898 0.211294 
1.300 7.41 7.35 0.7809 0.7788 11.88 787.626 1.78849 0.976398 
1.301 5.21 5.15 0.7682 0.8027 11.85 787.289 2.57578 0.536104 
1.303 -1.70 -1.76 0.8267 0.7775 11.87 786.615 4.14935 -0.845634 
1.305 -0.14 -0.18 0.7876 0.7800 11.88 785.942 5.72157 -0.532557 
1.306 3.63 3.59 0.8318 0.8641 11.88 785.605 0.223986 0.222118 
1.308 7.39 7.36 0.8212 0.8047 11.88 784.933 1.79419 0.975152 
1.309 5.20 5.14 0.7716 0.7952 11.85 784.597 2.57879 0.533563 
1.311 -1.69 -1.75 0.7644 0.8693 11.87 783.925 4.14697 -0.844365 
1.313 -0.16 -0.23 0.7015 0.8757 11.88 783.254 5.71382 -0.539102 
1.314 3.59 3.53 0.7873 0.6871 11.90 782.919 0.213549 0.211929 
1.316 7.41 7.38 0.8079 0.7031 11.88 782.249 1.77838 0.978532 
1.317 5.28 5.21 0.7104 0.7851 11.85 781.914 2.56029 0.549109 
1.319 -1.63 -1.69 0.7339 0.8364 11.86 781.244 4.12312 -0.831346 
1.321 -0.29 -0.35 0.7123 0.8164 11.87 780.576 5.6846 -0.563471 
1.322 3.43 3.37 0.8423 0.7747 11.88 780.241 0.18166 0.180662 
1.324 7.46 7.40 0.7899 0.8014 11.88 779.573 1.74114 0.985526 
1.325 5.44 5.38 0.7942 0.7788 11.85 779.24 2.52038 0.582021 
1.327 -1.50 -1.56 0.8127 0.8607 11.87 778.573 4.07786 -0.805351 
1.329 -0.49 -0.55 0.7996 0.8888 11.88 777.906 5.634 -0.604534 
1.330 3.17 3.11 0.8448 0.7164 11.90 777.573 0.128392 0.12804 
1.332 7.50 7.44 0.8284 0.7029 11.88 776.908 1.68254 0.993763 
1.334 2.06 2.00 0.8448 0.8741 11.84 776.242 3.23536 -0.0936275 
1.335 -1.29 -1.35 0.7282 0.8502 11.87 775.91 4.01127 -0.764119 
1.337 -0.76 -0.84 0.7185 0.8811 11.88 775.246 5.56209 -0.660206 
1.338 2.81 2.72 0.8101 0.7147 11.88 774.914 0.0538203 0.0537943 
1.340 7.53 7.47 0.8271 0.6852 11.89 774.251 1.60265 0.999493 
1.342 2.49 2.43 0.8046 0.7350 11.84 773.588 3.15016 -0.00856779 
1.343 -0.98 -1.07 0.7251 0.8467 11.86 773.257 3.92342 -0.704575 
1.345 -1.10 -1.17 0.7266 0.8498 11.87 772.595 5.46894 -0.727209 
1.347 5.87 5.80 0.6902 0.8057 11.89 771.933 0.72995 0.666832 
1.348 7.53 7.44 0.7977 0.7946 11.88 771.603 1.50155 0.997604 
1.350 3.03 2.94 0.8095 0.7464 11.84 770.942 3.04377 0.0976685 
1.351 -0.58 -0.65 0.7871 0.8524 11.86 770.612 3.81438 -0.623169 
1.353 -1.47 -1.53 0.8427 0.8838 11.87 769.953 5.35462 -0.800764 
1.355 5.41 5.32 1.0389 0.8229 11.89 769.294 0.610347 0.573152 
1.356 7.45 7.36 0.7687 0.7783 11.89 768.964 1.37931 0.981723 
1.358 3.66 3.57 0.7912 0.8016 11.84 768.306 2.91625 0.223438 
1.360 -2.29 -2.38 0.8646 0.7676 11.88 767.648 4.45188 -0.966258 
1.361 -1.83 -1.92 0.7841 0.8705 11.88 767.32 5.2192 -0.874298 
1.363 4.81 4.72 0.8455 0.8226 11.89 766.663 0.469666 0.452588 
1.365 7.09 7.00 0.7866 0.7939 11.87 766.006 2.00201 0.90846 
1.366 4.37 4.28 0.7825 0.7869 11.85 765.679 2.76769 0.365255 
1.368 -2.03 -2.12 0.8537 0.8057 11.88 765.023 4.29806 -0.915386 
1.369 -2.15 -2.24 0.7957 0.8406 11.88 764.696 5.06276 -0.939247 
1.371 4.06 3.97 0.7643 0.8210 11.89 764.041 0.307979 0.303133 
1.373 7.37 7.28 0.7857 0.7913 11.88 763.387 1.83508 0.96528 
1.374 5.13 5.04 0.7709 0.7826 11.85 763.06 2.59814 0.517095 
1.376 -1.61 -1.70 0.8234 0.7571 11.87 762.407 4.12328 -0.831436 
1.378 -0.41 -0.53 0.8602 0.7890 11.88 761.754 5.64711 -0.59404 
1.379 3.16 3.09 0.8520 0.7592 11.88 761.428 0.125356 0.125028 
1.381 7.53 7.44 0.7756 0.7898 11.89 760.776 1.64723 0.99708 
1.383 2.41 2.32 0.7439 0.7879 11.84 760.125 3.16781 -0.0262145 
1.384 -0.99 -1.08 0.8420 0.7422 11.86 759.8 3.92761 -0.707544 
1.386 -1.17 -1.26 0.8868 0.8562 11.88 759.149 5.44623 -0.742605 
1.388 5.69 5.60 0.7008 0.7860 11.90 758.499 0.680371 0.629082 
1.389 7.49 7.42 0.8032 0.7782 11.89 758.175 1.43855 0.991268 
1.391 3.46 3.40 0.8442 0.7970 11.84 757.526 2.95392 0.186571 
1.393 -2.32 -2.38 0.8779 0.8278 11.88 756.877 4.468 -0.970285 
1.394 -1.82 -1.89 0.7265 0.8288 11.88 756.553 5.22455 -0.871686 
1.396 4.72 4.66 0.8081 0.7933 11.89 755.905 0.453502 0.438117 
1.398 7.15 7.08 0.7394 0.7539 11.87 755.258 1.96434 0.923555 
1.399 4.58 4.52 0.8002 0.7916 11.84 754.935 2.71928 0.409873 
1.401 -1.89 -1.96 0.8692 0.8513 11.87 754.289 4.22818 -0.885043 
1.403 -0.07 -0.14 0.8777 0.8419 11.87 753.643 5.73579 -0.520468 
1.404 3.56 3.49 0.7107 0.7925 11.88 753.32 0.205922 0.20447 
1.406 7.48 7.42 0.6700 0.7521 11.88 752.676 1.7116 0.990104 
1.408 2.16 2.10 0.6940 0.7966 11.84 752.031 3.21598 -0.0743188 
1.409 -1.14 -1.21 0.8127 0.8636 11.86 751.709 3.96769 -0.735291 
1.411 -1.10 -1.16 0.8906 0.8568 11.88 751.066 5.47014 -0.726382 
1.413 5.71 5.64 0.8061 0.7872 11.89 750.423 0.688124 0.635089 
1.414 7.49 7.42 0.6737 0.7427 11.89 750.102 1.43823 0.991225 
1.416 3.53 3.49 0.6883 0.7263 11.84 749.459 2.93747 0.202712 
1.418 -2.28 -2.34 0.7250 0.8209 11.88 748.818 4.43542 -0.961889 
1.419 -1.92 -1.99 0.8276 0.8374 11.88 748.497 5.18392 -0.890874 
1.421 4.46 4.40 0.8264 0.7894 11.89 747.857 0.396768 0.386439 
1.423 7.26 7.22 0.7814 0.7963 11.87 747.216 1.89152 0.949007 
1.424 4.93 4.89 0.7538 0.6448 11.85 746.896 2.63842 0.48221 
1.426 -1.66 -1.70 0.7734 0.7278 11.87 746.257 4.13125 -0.835838 
1.428 -0.56 -0.57 0.7455 0.7346 11.88 745.618 5.62281 -0.613416 
1.429 2.93 2.92 0.7961 0.7960 11.88 745.299 0.0849196 0.0848176 
1.431 7.50 7.49 0.7634 0.7413 11.89 744.661 1.57456 0.999993 
1.433 2.91 2.87 0.8055 0.8541 11.85 744.024 3.06293 0.078585 
1.434 -0.58 -0.59 0.8495 0.7134 11.86 743.705 3.80663 -0.61709 
1.436 -1.68 -1.69 0.7990 0.7233 11.88 743.068 5.29309 -0.83608 
1.438 4.88 4.87 0.7984 0.7003 11.89 742.432 0.495084 0.475105 
1.440 7.11 7.07 0.6555 0.7115 11.87 741.797 1.97899 0.917838 
1.441 4.55 4.54 0.7801 0.7546 11.85 741.479 2.72047 0.408782 
1.443 -1.86 -1.87 0.7996 0.8120 11.87 740.844 4.20248 -0.872789 
1.445 -0.32 -0.33 0.8430 0.8278 11.88 740.21 5.68322 -0.564616 
1.446 3.20 3.19 0.8059 0.6722 11.88 739.893 0.139925 0.139469 
1.448 7.50 7.49 0.7785 0.6449 11.89 739.26 1.61876 0.99885 
1.450 2.74 2.71 0.7293 0.7103 11.85 738.627 3.09633 0.0452449 
1.451 -0.69 -0.70 0.8315 0.8177 11.86 738.311 3.83464 -0.638887 
1.453 -1.63 -1.64 0.8625 0.8342 11.88 737.679 5.31032 -0.826504 
1.455 4.91 4.90 0.7810 0.7810 11.89 737.047 0.501542 0.480778 
1.457 7.10 7.09 0.7515 0.8384 11.88 736.416 1.97469 0.919538 
1.458 4.59 4.58 0.7945 0.6855 11.85 736.101 2.71079 0.417599 
1.460 -1.81 -1.81 0.7980 0.7259 11.88 735.471 4.18205 -0.862635 
1.462 -0.45 -0.45 0.7847 0.7522 11.87 734.841 5.65205 -0.590065 
1.463 3.02 3.01 0.7904 0.8117 11.88 734.527 0.103388 0.103203 
1.465 7.50 7.50 0.7431 0.7369 11.89 733.898 1.5715 1 
1.467 3.02 3.01 0.7943 0.7738 11.85 733.27 3.03835 0.103058 
1.468 -0.46 -0.43 0.8311 0.8367 11.86 732.956 3.77131 -0.588914 
1.470 -1.84 -1.82 0.8359 0.7110 11.88 732.328 5.23628 -0.86588 
1.472 4.51 4.54 0.7887 0.6762 11.89 731.702 0.416809 0.404845 
1.474 7.26 7.26 0.6951 0.6715 11.87 731.075 1.87927 0.952797 
1.475 5.03 5.03 0.8151 0.8020 11.84 730.762 2.61004 0.506877 
1.477 -1.52 -1.49 0.8471 0.8284 11.87 730.137 4.07062 -0.801039 
1.479 -0.93 -0.91 0.8582 0.8715 11.88 729.512 5.52996 -0.683997 
1.481 5.72 5.75 0.7612 0.8453 11.89 728.887 0.704858 0.647926 
1.482 7.44 7.47 0.7750 0.6689 11.89 728.575 1.43343 0.990581 
1.484 3.75 3.75 0.7058 0.6955 11.84 727.951 2.88965 0.249288 
1.486 -2.17 -2.16 0.7307 0.7812 11.88 727.328 4.34462 -0.93313 
1.487 -2.18 -2.18 0.8655 0.8762 11.88 727.017 5.07163 -0.936163 
1.489 3.69 3.70 0.7869 0.8100 11.89 726.395 0.241548 0.239206 
1.491 7.46 7.46 0.7853 0.7530 11.88 725.773 1.6934 0.992493 
1.493 2.50 2.48 0.8081 0.8324 11.85 725.151 3.14402 -0.00242456 
1.494 -0.83 -0.82 0.7843 0.7868 11.86 724.841 3.86886 -0.664829 
1.496 -1.61 -1.61 0.8398 0.7917 11.88 724.22 5.31761 -0.822377 
1.498 4.82 4.82 0.7970 0.7994 11.89 723.601 0.481934 0.463494 
1.500 7.18 7.19 0.6774 0.7861 11.87 722.981 1.92821 0.936806 
1.501 4.85 4.86 0.7814 0.8217 11.86 722.672 2.65088 0.471257 
1.503 -1.58 -1.57 0.8552 0.8638 11.87 722.053 4.09529 -0.815562 
1.505 -0.89 -0.89 0.8313 0.8122 11.88 721.435 5.53847 -0.677762 
1.507 5.71 5.71 0.7703 0.7132 11.89 720.817 0.697229 0.642096 
1.508 7.45 7.43 0.7730 0.8161 11.89 720.509 1.41774 0.988309 
1.510 3.90 3.90 0.7372 0.7624 11.85 719.892 2.85783 0.27997 
1.512 -2.06 -2.08 0.7870 0.8320 11.88 719.276 4.29669 -0.914834 
1.514 -0.10 -0.12 0.7802 0.8440 11.88 718.66 5.73432 -0.521723 
1.515 3.37 3.32 0.7923 1.1494 11.88 718.352 0.169483 0.168673 
1.517 7.52 7.47 0.7509 0.6580 11.89 717.737 1.60527 0.999406 
1.519 3.02 3.00 0.7967 0.6915 11.85 717.123 3.03982 0.101599 
1.521 -2.35 -2.37 0.8551 0.7601 11.88 716.509 4.47314 -0.971517 
1.522 -1.93 -1.95 0.8250 0.8599 11.88 716.202 5.18934 -0.888397 
1.524 4.17 4.15 0.7977 0.8182 11.89 715.589 0.337644 0.331265 
1.526 7.41 7.39 0.7720 0.7723 11.88 714.977 1.7679 0.980637 
1.528 2.23 2.21 0.7421 0.8360 11.84 714.365 3.19694 -0.0553176 
1.529 -0.97 -0.99 0.8108 0.7373 11.87 714.059 3.911 -0.695708 
1.531 -1.53 -1.57 0.8570 0.7939 11.88 713.447 5.3382 -0.81049 
1.533 4.83 4.79 0.7724 0.7949 11.89 712.837 0.480991 0.462658 
1.535 7.24 7.20 0.7562 0.7833 11.88 712.226 1.90575 0.944426 
1.536 5.02 4.98 0.7969 0.7964 11.85 711.922 2.61767 0.50028 
1.538 -1.39 -1.44 0.7693 0.8497 11.88 711.312 4.0406 -0.782709 
1.540 -1.14 -1.18 0.8500 0.8626 11.88 710.703 5.46231 -0.731743 
1.542 5.34 5.30 0.7960 0.8238 11.89 710.095 0.599619 0.564328 
1.543 7.35 7.31 0.7499 0.7761 11.90 709.791 1.30941 0.966033 
1.545 4.53 4.49 0.7741 0.8007 11.85 709.183 2.72808 0.401828 
1.547 -1.70 -1.74 0.8387 0.7980 11.88 708.576 4.14554 -0.843595 
1.549 -0.78 -0.82 0.8573 0.8891 11.88 707.97 5.56178 -0.660442 
1.551 5.72 5.67 0.7673 0.7989 11.89 707.363 0.693623 0.639327 
1.552 7.45 7.41 0.7606 0.8032 11.89 707.061 1.40068 0.985566 
1.554 4.13 4.09 0.7966 0.8267 11.84 706.455 2.8139 0.321862 
1.556 -1.90 -1.94 0.7965 0.8540 11.87 705.851 4.2259 -0.88398 
1.558 -0.48 -0.55 0.7837 0.7944 11.87 705.246 5.6367 -0.602388 
1.559 2.83 2.76 0.7838 0.7804 11.88 704.944 0.0584547 0.0584214 
1.561 7.51 7.44 0.7408 0.7519 11.88 704.341 1.46744 0.994663 
1.563 3.85 3.78 0.7822 0.8008 11.84 703.738 2.87522 0.263238 
1.565 -2.01 -2.08 0.8421 0.8750 11.88 703.136 4.28179 -0.908715 
1.567 -0.27 -0.34 0.8337 0.8917 11.87 702.534 5.68716 -0.561361 
1.568 3.07 2.99 0.7931 0.7077 11.88 702.233 0.106204 0.106004 
1.570 7.53 7.45 0.7733 0.6977 11.89 701.632 1.50977 0.998138 
1.572 3.67 3.60 0.7555 0.8694 11.84 701.031 2.91213 0.227454 
1.574 -2.07 -2.14 0.7919 0.7289 11.88 700.431 4.31329 -0.921412 
1.576 -0.16 -0.23 0.7773 0.7317 11.88 699.831 5.71326 -0.539573 
1.577 3.20 3.10 0.8012 0.8468 11.88 699.532 0.129602 0.12924 
1.579 7.53 7.46 0.7589 0.8098 11.88 698.933 1.52777 0.999074 
1.581 3.61 3.54 0.7928 0.8123 11.85 698.335 2.92474 0.215161 
1.583 -2.08 -2.16 0.8622 0.8202 11.88 697.737 4.32051 -0.924192 
1.585 -0.14 -0.24 0.8599 0.8554 11.88 697.14 5.71509 -0.538031 
1.586 3.19 3.09 0.7645 0.8375 11.88 696.841 0.128742 0.128387 
1.588 7.53 7.46 0.7740 0.6474 11.89 696.245 1.52153 0.998787 
1.590 3.67 3.59 0.7736 0.6696 11.85 695.649 2.91313 0.226485 
1.592 -2.04 -2.14 0.8382 0.7997 11.88 695.053 4.30353 -0.917575 
1.594 -0.24 -0.32 0.8739 0.7945 11.87 694.458 5.69274 -0.556729 
1.595 3.07 2.96 0.7604 0.8259 11.88 694.161 0.103718 0.103532 
1.597 7.54 7.43 0.7539 0.7819 11.88 693.567 1.49115 0.99683 
1.599 3.86 3.75 0.7937 0.8431 11.84 692.973 2.87739 0.261139 
1.601 -1.96 -2.04 0.8847 0.8691 11.88 692.38 4.26245 -0.900472 
1.603 -0.43 -0.51 0.7450 0.8503 11.87 691.787 5.64632 -0.594681 
1.604 2.81 2.73 0.8231 0.7711 11.88 691.491 0.0546219 0.0545947 
1.606 7.49 7.42 0.8570 0.7665 11.89 690.899 1.43672 0.991025 
1.608 4.13 4.05 0.8215 0.7955 11.84 690.307 2.81763 0.31833 
1.610 -1.81 -1.89 0.8283 0.8476 11.88 689.716 4.19735 -0.870275 
1.612 -0.71 -0.79 0.8686 0.7720 11.88 689.126 5.5759 -0.649772 
1.614 5.64 5.57 0.7997 0.7809 11.89 688.536 0.670083 0.621051 
1.615 7.43 7.35 0.7375 0.7909 11.89 688.241 1.35832 0.977513 
1.617 4.52 4.44 0.7335 0.8044 11.84 687.652 2.73392 0.396471 
1.619 -1.57 -1.66 0.7584 0.8547 11.88 687.064 4.10834 -0.823045 
1.621 -1.05 -1.13 0.7440 0.8784 11.88 686.475 5.48159 -0.718467 
1.623 5.24 5.16 0.6685 0.8375 11.89 685.888 0.570473 0.540031 
1.625 7.20 7.12 0.7983 0.7932 11.87 685.301 1.94137 0.93212 
1.626 5.00 4.92 0.8135 0.7928 11.84 685.007 2.62638 0.492724 
1.628 -1.23 -1.31 0.8497 0.8065 11.87 684.421 3.99551 -0.75386 
1.630 -1.45 -1.50 0.8729 0.8469 11.88 683.835 5.36347 -0.795427 
1.632 4.69 4.63 0.7768 0.7950 11.89 683.25 0.447079 0.432334 
1.634 7.39 7.31 0.7853 0.7769 11.87 682.665 1.8127 0.970883 
1.636 2.36 2.28 0.8177 0.7423 11.84 682.08 3.17715 -0.0355534 
1.637 -0.75 -0.83 0.8126 0.8498 11.86 681.788 3.85894 -0.657389 
1.639 -1.82 -1.91 0.8535 0.7427 11.88 681.205 5.22164 -0.873109 
1.641 4.02 3.94 0.7858 0.7149 11.89 680.621 0.299992 0.295512 
1.643 7.52 7.44 0.7792 0.8281 11.88 680.039 1.66036 0.995992 
1.645 3.14 3.08 0.7545 0.7360 11.84 679.457 3.01956 0.121725 
1.647 -2.18 -2.26 0.7949 0.7390 11.88 678.875 4.37761 -0.944482 
1.648 -2.17 -2.25 0.8499 0.8801 11.88 678.584 5.05619 -0.94148 
1.650 3.19 3.10 0.8407 0.8114 11.89 678.003 0.129302 0.128942 
1.652 7.52 7.44 0.7508 0.7835 11.88 677.423 1.48444 0.996273 
1.654 4.03 3.95 0.7948 0.7712 11.84 676.843 2.83841 0.298555 
1.656 -1.79 -1.88 0.8565 0.8259 11.87 676.264 4.19123 -0.867244 
1.658 -0.83 -0.91 0.8375 0.8405 11.88 675.685 5.54289 -0.674505 
1.660 5.41 5.32 0.7787 0.8345 11.89 675.106 0.610208 0.573038 
1.661 7.34 7.25 0.7852 0.6475 11.89 674.817 1.28503 0.959445 
1.663 4.97 4.89 0.7761 0.6954 11.84 674.24 2.63379 0.486255 
1.665 -1.18 -1.26 0.8131 0.7554 11.87 673.663 3.98141 -0.744519 
1.667 -1.55 -1.61 0.8979 0.9112 11.88 673.086 5.32787 -0.816497 
1.669 4.43 4.37 0.8578 0.6743 11.89 672.51 0.38999 0.380179 
1.671 7.47 7.39 0.7672 0.6625 11.87 671.934 1.73415 0.986688 
1.673 2.85 2.79 0.8411 0.7027 11.84 671.359 3.07715 0.0643975 
1.675 -2.26 -2.31 0.8682 0.7795 11.88 670.784 4.41901 -0.957271 
1.676 -2.12 -2.18 0.7471 0.8537 11.89 670.497 5.0895 -0.929731 
1.678 3.26 3.20 0.6837 0.7685 11.88 669.923 0.14645 0.145927 
1.680 7.51 7.45 0.6476 0.7252 11.87 669.349 1.48544 0.996359 
1.682 4.09 4.04 0.8123 0.7828 11.83 668.776 2.82328 0.312969 
1.684 -1.73 -1.78 0.8333 0.8626 11.88 668.204 4.15997 -0.851257 
1.686 -1.01 -1.07 0.8288 0.8846 11.87 667.632 5.49552 -0.708709 
1.688 5.13 5.07 0.7299 0.8083 11.89 667.06 0.54674 0.519905 
1.690 7.29 7.23 0.6825 0.7994 11.86 666.489 1.88 0.952575 
1.691 5.33 5.28 0.8582 0.8476 11.84 666.204 2.54621 0.560827 
1.693 -0.83 -0.89 0.8937 0.7110 11.87 665.634 3.87776 -0.671453 
1.695 -1.87 -1.93 0.8400 0.7361 11.88 665.064 5.20817 -0.879596 
1.697 3.77 3.74 0.7772 0.7056 11.89 664.495 0.254262 0.251531 
1.699 7.53 7.47 0.7940 0.6857 11.88 663.926 1.5824 0.999933 
1.701 3.68 3.62 0.8800 0.7476 11.83 663.357 2.9094 0.230114 
1.703 -1.91 -1.97 0.8764 0.8286 11.88 662.79 4.23526 -0.888317 
1.705 -0.78 -0.84 0.8258 0.8552 11.88 662.222 5.55999 -0.661785 
1.707 5.34 5.31 0.7624 0.6554 11.90 661.655 0.600397 0.56497 
1.708 7.29 7.23 0.7321 0.8123 11.89 661.372 1.26177 0.95263 
1.710 5.17 5.12 0.7491 0.8519 11.83 660.806 2.58366 0.52943 
1.712 -0.93 -0.98 0.7762 0.8258 11.87 660.24 3.90443 -0.690973 
1.714 -1.83 -1.89 0.8012 0.8444 11.87 659.675 5.22406 -0.871927 
1.716 3.81 3.75 0.8012 0.7997 11.90 659.11 0.259378 0.25648 
1.718 7.53 7.47 0.6444 0.8240 11.88 658.546 1.57675 0.999982 
1.720 3.75 3.71 0.8137 0.8388 11.84 657.982 2.893 0.246041 
1.722 -1.85 -1.91 0.8144 0.8356 11.87 657.419 4.20812 -0.875527 
1.724 -0.92 -0.98 0.7937 0.8561 11.87 656.856 5.52211 -0.689698 
1.726 5.15 5.09 0.7804 0.7911 11.89 656.294 0.551797 0.524218 
1.728 7.30 7.27 0.6462 0.7287 11.86 655.732 1.86354 0.957455 
1.729 5.44 5.39 0.7928 0.8005 11.83 655.451 2.51899 0.583148 
1.731 -0.66 -0.69 0.8443 0.7149 11.86 654.89 3.82906 -0.634578 
1.733 -2.02 -2.08 0.8443 0.7836 11.86 654.33 5.138 -0.910789 
1.735 3.34 3.28 0.7783 0.7924 11.88 653.77 0.162629 0.161913 
1.737 7.49 7.46 0.7429 0.6901 11.88 653.21 1.46933 0.994857 
1.739 4.32 4.26 0.7845 0.8315 11.83 652.651 2.77491 0.358521 
1.741 -1.50 -1.56 0.8622 0.7817 11.87 652.092 4.07937 -0.806247 
1.743 -1.39 -1.45 0.8332 0.7933 11.87 651.534 5.38272 -0.783616 
1.745 4.48 4.43 0.7704 0.7868 11.89 650.976 0.401766 0.391045 
1.747 7.48 7.43 0.7419 0.7613 11.87 650.419 1.70288 0.991289 
1.749 3.22 3.16 0.7986 0.7773 11.83 649.862 3.00289 0.138263 
1.751 -2.06 -2.11 0.8639 0.8478 11.89 649.306 4.30178 -0.916876 
1.753 -0.63 -0.69 0.8289 0.8614 11.87 648.75 5.59955 -0.631613 
1.755 5.41 5.35 0.7666 0.7716 11.88 648.195 0.613035 0.575352 
1.756 7.29 7.23 0.7747 0.7814 11.88 647.917 1.26095 0.952381 
1.758 5.29 5.24 0.8031 0.8326 11.82 647.362 2.55595 0.552732 
1.760 -0.72 -0.78 0.8165 0.8467 11.86 646.808 3.84985 -0.65051 
1.762 -2.02 -2.07 0.8090 0.8696 11.87 646.255 5.14263 -0.908864 
1.764 3.28 3.22 0.7611 0.8421 11.87 645.701 0.151128 0.150553 
1.766 7.49 7.43 0.7633 0.7930 11.89 645.149 1.4417 0.991679 
1.768 4.52 4.47 0.8040 0.8247 11.83 644.596 2.73117 0.398997 
1.770 -1.32 -1.38 0.8063 0.8571 11.86 644.045 4.01954 -0.769427 
1.772 -1.60 -1.68 0.8031 0.7988 11.87 643.493 5.3068 -0.82848 
1.774 4.07 3.98 0.7418 0.7498 11.89 642.942 0.309772 0.304842 
1.776 7.53 7.47 0.7656 0.7922 11.87 642.392 1.59483 0.999711 
1.778 3.83 3.77 0.8034 0.8008 11.82 641.842 2.87879 0.259788 
1.780 -1.73 -1.79 0.8395 0.7591 11.87 641.293 4.16165 -0.852138 
1.782 -1.19 -1.25 0.8496 0.7403 11.87 640.744 5.44341 -0.744492 
1.784 4.66 4.61 0.8205 0.7066 11.89 640.195 0.440891 0.426746 
1.786 7.49 7.40 0.7668 0.8244 11.86 639.647 1.72046 0.988821 
1.788 3.25 3.17 0.7407 0.6850 11.84 639.1 2.99893 0.142177 
1.790 -1.99 -2.07 0.7872 0.7437 11.87 638.552 4.27631 -0.906415 
1.792 -0.81 -0.86 0.8913 0.7326 11.87 638.006 5.5526 -0.667309 
1.794 5.12 5.06 0.8124 0.6964 11.89 637.46 0.544603 0.518078 
1.796 7.38 7.32 0.8507 0.7124 11.87 636.914 1.8187 0.969428 
1.798 2.78 2.72 0.8412 0.7907 11.83 636.369 3.09171 0.0498585 
1.800 -2.17 -2.23 0.8371 0.8698 11.88 635.824 4.36363 -0.939799 
1.802 -0.49 -0.55 0.8499 0.6993 11.88 635.28 5.63447 -0.604167 
1.804 5.44 5.38 0.7759 0.6572 11.90 634.736 0.621024 0.581869 
1.806 7.28 7.22 0.7863 0.6674 11.86 634.193 1.88968 0.949586 
1.807 5.44 5.35 0.7571 0.7985 11.84 633.921 2.5236 0.579399 
1.809 -0.48 -0.56 0.8110 0.8303 11.86 633.378 3.79063 -0.60442 
1.811 -2.18 -2.23 0.7423 0.8779 11.88 632.836 5.05657 -0.941351 
1.813 2.72 2.66 0.6661 0.8568 11.89 632.294 0.0382478 0.0382384 
1.815 7.35 7.29 0.7821 0.8069 11.88 631.753 1.30202 0.964098 
1.817 5.27 5.18 0.7637 0.8130 11.84 631.212 2.56472 0.545406 
1.819 -0.62 -0.70 0.7858 0.8364 11.87 630.672 3.82633 -0.632473 
1.821 -2.12 -2.18 0.7250 0.8382 11.88 630.132 5.08687 -0.930698 
1.823 2.84 2.79 0.6817 0.7824 11.88 629.593 0.0631377 0.0630958 
1.825 7.37 7.32 0.7804 0.7429 11.89 629.054 1.32151 0.96909 
1.827 5.21 5.12 0.7643 0.8326 11.84 628.515 2.57881 0.533538 
1.829 -0.67 -0.72 0.8192 0.8707 11.86 627.977 3.83504 -0.63919 
1.831 -2.10 -2.19 0.7933 0.8546 11.88 627.44 5.09019 -0.92948 
1.833 2.83 2.77 0.6985 0.8067 11.88 626.903 0.061074 0.061036 
1.835 7.37 7.31 0.6558 0.7444 11.88 626.366 1.31407 0.967227 
1.837 5.25 5.19 0.6815 0.8471 11.83 625.83 2.566 0.544331 
1.839 -0.58 -0.67 0.8721 0.9870 11.86 625.294 3.81686 -0.625104 
1.841 -2.13 -2.25 0.7622 0.8604 11.88 624.759 5.06664 -0.937906 
1.843 2.72 2.60 0.7003 0.8117 11.87 624.224 0.0321719 0.0321664 
1.845 7.33 7.25 0.6466 0.7210 11.89 623.69 1.27982 0.957964 
1.847 5.43 5.34 0.6676 0.7474 11.84 623.156 2.5264 0.577119 
1.849 -0.40 -0.49 0.8415 0.8185 11.87 622.622 3.77191 -0.589399 
1.852 -0.46 -0.55 0.8405 0.7088 11.88 621.823 5.63817 -0.601207 
1.854 5.36 5.27 0.7944 0.6719 11.90 621.291 0.597837 0.562856 
1.856 7.36 7.28 0.7941 0.6768 11.87 620.759 1.83962 0.964084 
1.858 2.85 2.76 0.8385 0.8643 11.83 620.227 3.08034 0.0612142 
1.860 -2.08 -2.16 0.9040 0.7212 11.88 619.696 4.32 -0.923998 
1.862 -0.76 -0.87 0.8149 0.7254 11.88 619.166 5.5586 -0.662829 
1.864 5.00 4.91 0.8099 0.6813 11.89 618.636 0.512946 0.490746 
1.866 7.46 7.38 0.7807 0.6808 11.87 618.106 1.74942 0.984089 
1.868 3.33 3.23 0.8475 0.7485 11.83 617.577 2.98484 0.156109 
1.870 -1.86 -1.95 0.8877 0.8258 11.88 617.048 4.2192 -0.880829 
1.872 -1.13 -1.25 0.8285 0.8397 11.87 616.52 5.45251 -0.738388 
1.874 4.50 4.41 0.7898 0.6470 11.89 615.992 0.401571 0.390865 
1.876 7.54 7.44 0.7717 0.6309 11.87 615.465 1.63277 0.998081 
1.878 3.92 3.83 0.8205 0.7000 11.83 614.938 2.86291 0.275094 
1.880 -1.52 -1.61 0.8847 0.7558 11.87 614.412 4.09199 -0.813648 
1.882 -1.56 -1.65 0.9016 0.9059 11.87 613.886 5.32003 -0.820999 
1.884 3.85 3.76 0.8626 0.6711 11.89 613.36 0.263826 0.260776 
1.886 7.53 7.44 0.7743 0.6455 11.88 612.835 1.48976 0.996718 
1.888 4.62 4.52 0.8183 0.6814 11.83 612.311 2.71464 0.414097 
1.890 -1.03 -1.12 0.8546 0.7708 11.87 611.787 3.93848 -0.715182 
1.892 -1.96 -2.05 0.8872 0.7967 11.87 611.263 5.16126 -0.900935 
1.894 3.04 2.95 0.8273 0.7503 11.88 610.74 0.0998203 0.0996546 
1.896 7.39 7.30 0.7699 0.7808 11.88 610.217 1.32052 0.968843 
1.898 5.38 5.28 0.8014 0.6621 11.83 609.694 2.54016 0.56582 
1.901 -2.16 -2.25 0.8325 0.8857 11.88 608.912 4.36768 -0.941175 
1.903 -0.68 -0.75 0.7840 0.8294 11.87 608.39 5.58472 -0.64304 
1.905 5.02 4.93 0.6821 0.7896 11.89 607.87 0.517538 0.494742 
1.907 7.48 7.39 0.6508 0.7400 11.87 607.349 1.7325 0.986955 
1.909 3.52 3.42 0.6819 0.8646 11.83 606.829 2.94642 0.19394 
1.911 -1.71 -1.80 0.8791 0.8678 11.88 606.31 4.15929 -0.850903 
1.913 -1.42 -1.49 0.7959 0.8321 11.87 605.791 5.37114 -0.79076 
1.915 4.02 3.92 0.6910 0.7963 11.88 605.272 0.298754 0.29433 
1.917 7.52 7.46 0.6428 0.7451 11.88 604.754 1.50852 0.998062 
1.919 4.59 4.52 0.6708 0.7879 11.84 604.236 2.71725 0.411719 
1.921 -0.99 -1.06 0.8442 0.8378 11.87 603.719 3.92495 -0.705662 
1.923 -2.03 -2.10 0.8540 0.8591 11.88 603.202 5.13161 -0.913405 
1.925 2.80 2.74 0.7946 0.8534 11.88 602.686 0.0540578 0.0540315 
1.927 7.29 7.22 0.6922 0.7361 11.89 602.17 1.25866 0.951678 
1.930 2.92 2.85 0.8383 0.8170 11.84 601.397 3.06362 0.0778941 
1.932 -1.99 -2.03 0.8804 0.8638 11.88 600.882 4.26564 -0.901857 
1.934 -1.12 -1.16 0.8296 0.7838 11.87 600.368 5.46663 -0.728789 
1.936 4.39 4.35 0.7547 0.7981 11.89 599.854 0.383413 0.374088 
1.938 7.53 7.47 0.7914 0.7673 11.87 599.34 1.58235 0.999933 
1.940 4.30 4.23 0.8637 0.8070 11.83 598.827 2.78026 0.353519 
1.942 -1.17 -1.24 0.8684 0.8383 11.87 598.315 3.97715 -0.741669 
1.944 -1.96 -2.00 0.8304 0.8608 11.87 597.802 5.17301 -0.895777 
1.946 2.94 2.90 0.7695 0.7964 11.88 597.291 0.0846612 0.0845601 
1.948 7.32 7.25 0.7568 0.7655 11.89 596.779 1.27848 0.957578 
1.951 2.90 2.84 0.7403 0.7575 11.84 596.013 3.06728 0.0742426 
1.953 -1.96 -2.03 0.7607 0.8040 11.88 595.503 4.25854 -0.898768 
1.955 -1.18 -1.22 0.7882 0.8813 11.87 594.993 5.44878 -0.740894 
1.957 4.26 4.22 0.7684 0.7812 11.89 594.484 0.354822 0.347423 
1.959 7.53 7.46 0.7772 0.7466 11.87 593.975 1.54303 0.999614 
1.961 4.53 4.47 0.7127 0.7987 11.84 593.467 2.73021 0.399873 
1.963 -0.96 -1.03 0.7407 0.8119 11.87 592.959 3.91639 -0.699568 
1.965 -2.11 -2.15 0.7922 0.8493 11.88 592.451 5.10154 -0.925231 
1.967 2.53 2.49 0.7965 0.7969 11.88 591.944 0.00249689 0.00249689 
1.970 7.43 7.36 0.7557 0.7773 11.87 591.184 1.77681 0.978854 
1.972 3.44 3.38 0.7996 0.8351 11.84 590.678 2.95842 0.182153 
1.974 -1.67 -1.73 0.8749 0.8843 11.88 590.172 4.13901 -0.840075 
1.976 -1.59 -1.63 0.8531 0.8639 11.87 589.667 5.3186 -0.821812 
1.978 3.58 3.54 0.7614 0.8005 11.89 589.162 0.213992 0.212363 
1.980 7.45 7.39 0.8095 0.7552 11.88 588.658 1.39156 0.98398 
1.982 5.25 5.18 0.8022 0.8202 11.84 588.154 2.56812 0.542553 
1.985 -2.11 -2.17 0.7679 0.7902 11.88 587.399 4.33107 -0.928175 
1.987 -0.99 -1.03 0.7830 0.7931 11.87 586.896 5.50511 -0.701907 
1.989 4.44 4.40 0.8292 0.7678 11.89 586.394 0.394968 0.384778 
1.991 7.52 7.48 0.6281 0.7386 11.87 585.892 1.567 0.999993 
1.993 4.48 4.44 0.7920 0.8029 11.84 585.39 2.73803 0.392695 
1.995 -0.95 -0.99 0.8199 0.7824 11.87 584.889 3.90806 -0.693596 
1.997 -2.15 -2.19 0.8288 0.7796 11.87 584.388 5.07709 -0.934231 
2.000 5.11 5.08 0.8182 0.7841 11.89 583.638 0.545567 0.518903 
2.002 7.47 7.43 0.8033 0.7814 11.87 583.138 1.71209 0.990034 
2.004 3.82 3.79 0.8784 0.8040 11.84 582.639 2.87762 0.260916 
2.006 -1.40 -1.44 0.8257 0.8792 11.87 582.141 4.04215 -0.783674 
2.008 -1.89 -1.92 0.8932 0.8793 11.88 581.642 5.20569 -0.880777 
2.010 2.94 2.91 0.7998 0.7995 11.89 581.144 0.0850374 0.0849349 
2.013 7.34 7.33 0.6415 0.7002 11.86 580.398 1.82698 0.967365 
2.015 3.27 3.27 0.6835 0.7757 11.84 579.901 2.98703 0.153949 
2.017 -1.70 -1.74 0.8513 0.8647 11.88 579.405 4.14609 -0.843891 
2.019 -1.63 -1.67 0.8304 0.7744 11.87 578.909 5.30415 -0.829958 
2.021 3.40 3.37 0.7356 0.7792 11.88 578.413 0.178042 0.177103 
2.023 7.36 7.36 0.6771 0.6511 11.87 577.918 1.33413 0.972124 
2.026 2.88 2.87 0.8463 0.8231 11.84 577.176 3.0664 0.0751258 
2.028 -1.89 -1.92 0.9103 0.8827 11.88 576.682 4.22001 -0.88121 
2.030 -1.43 -1.47 0.8230 0.8845 11.87 576.189 5.37263 -0.789844 
2.032 3.71 3.68 0.8299 0.8148 11.89 575.695 0.241083 0.238754 
2.034 7.44 7.40 0.7890 0.7709 11.88 575.202 1.39173 0.984011 
2.036 5.34 5.31 0.8650 0.7989 11.83 574.71 2.5414 0.564801 
2.039 -1.99 -2.02 0.7364 0.8568 11.88 573.972 4.26405 -0.90117 
2.041 -1.31 -1.34 0.8514 0.8686 11.87 573.481 5.41126 -0.765567 
2.043 3.87 3.84 0.7451 0.7712 11.89 572.99 0.274303 0.270876 
2.045 7.46 7.43 0.7146 0.7486 11.88 572.5 1.41955 0.988584 
2.047 5.26 5.20 0.7673 0.7418 11.84 572.009 2.56381 0.546167 
2.050 -2.02 -2.05 0.9099 0.8784 11.88 571.275 4.27837 -0.907283 
2.052 -1.28 -1.31 0.9091 0.8828 11.87 570.786 5.42019 -0.759796 
2.054 3.89 3.86 0.7909 0.8327 11.89 570.297 0.27784 0.274279 
2.056 7.46 7.43 0.7890 0.7756 11.88 569.809 1.4177 0.988304 
2.058 5.28 5.25 0.8181 0.8162 11.84 569.321 2.55659 0.552202 
2.061 -1.99 -2.02 0.7383 0.8564 11.88 568.591 4.26309 -0.900753 
2.063 -1.34 -1.39 0.7205 0.8268 11.87 568.104 5.39954 -0.773055 
2.065 3.77 3.72 0.7937 0.7658 11.89 567.617 0.251836 0.249182 
2.067 7.43 7.40 0.7049 0.7549 11.89 567.132 1.38634 0.983036 
2.069 5.44 5.38 0.7679 0.7941 11.84 566.646 2.51988 0.582431 
2.072 -1.87 -1.93 0.8925 0.7829 11.88 565.919 4.21836 -0.880429 
2.074 -1.49 -1.55 0.8913 0.9240 11.87 565.434 5.34947 -0.803835 
2.076 3.50 3.45 0.8772 0.6718 11.89 564.95 0.196427 0.195166 
2.078 7.38 7.32 0.7595 0.6546 11.89 564.467 1.3256 0.97009 
2.081 3.16 3.08 0.7789 0.8179 11.84 563.742 3.01755 0.123723 
2.083 -1.69 -1.74 0.7539 0.8645 11.88 563.259 4.14431 -0.842937 
2.085 -1.71 -1.77 0.7219 0.8416 11.87 562.777 5.27011 -0.848465 
2.087 3.08 3.03 0.6705 0.7683 11.89 562.295 0.111754 0.111521 
2.090 7.40 7.34 0.7680 0.6452 11.86 561.573 1.7972 0.974481 
2.092 3.63 3.57 0.7777 0.6920 11.84 561.093 2.91962 0.220153 
2.094 -1.39 -1.44 0.8891 0.7622 11.87 560.612 4.04109 -0.783012 
2.096 -1.98 -2.03 0.9054 0.7711 11.88 560.133 5.16159 -0.900794 
2.099 5.19 5.10 0.6637 0.7801 11.89 559.413 0.557365 0.528952 
2.101 7.50 7.44 0.6368 0.8221 11.87 558.935 1.67547 0.994526 
2.103 4.24 4.18 0.8282 0.8520 11.84 558.456 2.79262 0.341928 
2.105 -0.94 -1.00 0.7702 0.8486 11.87 557.978 3.90882 -0.694142 
2.108 -0.69 -0.77 0.8967 0.8135 11.88 557.262 5.58132 -0.645643 
2.110 4.54 4.46 0.8270 0.7589 11.89 556.785 0.411943 0.400391 
2.112 7.52 7.47 0.7562 0.7840 11.87 556.308 1.5248 0.998942 
2.114 4.95 4.89 0.8082 0.6752 11.83 555.832 2.6367 0.483714 
2.117 -2.04 -2.13 0.8372 0.8999 11.88 555.118 4.30277 -0.917272 
2.119 -1.28 -1.37 0.7753 0.8526 11.87 554.643 5.41229 -0.764905 
2.121 3.72 3.63 0.6705 0.7779 11.89 554.168 0.23768 0.235448 
2.123 7.40 7.34 0.6411 0.7258 11.88 553.694 1.3453 0.974684 
2.126 3.22 3.14 0.7326 0.7014 11.84 552.983 3.00496 0.136204 
2.128 -1.59 -1.65 0.8939 0.7401 11.88 552.51 4.11022 -0.824109 
2.130 -1.84 -1.93 0.8558 0.7990 11.88 552.037 5.21453 -0.876554 
2.132 2.72 2.63 0.8449 0.7736 11.88 551.564 0.0347092 0.0347022 
2.135 7.51 7.42 0.7265 0.7086 11.86 550.856 1.68799 0.993141 
2.137 4.27 4.18 0.7862 0.7819 11.83 550.384 2.78899 0.345342 
2.139 -0.87 -0.93 0.8787 0.8660 11.87 549.913 3.88905 -0.679778 
2.142 -0.88 -0.91 0.8687 0.7266 11.88 549.207 5.53738 -0.678564 
2.144 4.24 4.21 0.8201 0.6913 11.89 548.737 0.351904 0.344685 
2.146 7.48 7.45 0.7467 0.7985 11.87 548.267 1.44867 0.992552 
2.148 5.34 5.28 0.7889 0.6601 11.83 547.798 2.5445 0.562237 
2.151 -1.81 -1.84 0.8984 0.8840 11.88 547.095 4.18649 -0.864874 
2.153 -1.70 -1.73 0.7496 0.8451 11.87 546.627 5.27998 -0.843199 
2.155 2.96 2.93 0.6770 0.8022 11.88 546.159 0.0893451 0.0892263 
2.158 7.47 7.41 0.7526 0.7170 11.86 545.457 1.72642 0.987915 
2.160 4.11 4.08 0.9689 0.8082 11.83 544.99 2.81663 0.319271 
2.162 -0.96 -0.96 0.8844 0.7246 11.87 544.524 3.90591 -0.692047 
2.165 -0.89 -0.89 0.7903 0.8785 11.87 543.825 5.53809 -0.678043 
2.167 4.18 4.17 0.7017 0.8000 11.89 543.359 0.341854 0.335234 
2.169 7.46 7.43 0.7303 0.7695 11.88 542.894 1.42787 0.989804 
2.172 2.95 2.92 0.7509 0.6927 11.84 542.197 3.05516 0.0863217 
2.174 -1.70 -1.70 0.8456 0.7509 11.88 541.733 4.13886 -0.839992 
2.176 -1.86 -1.87 0.9002 0.7418 11.87 541.269 5.22163 -0.873114 
2.178 2.60 2.60 0.7938 0.7068 11.88 540.806 0.0202901 0.0202887 
2.181 7.50 7.47 0.7330 0.7203 11.87 540.112 1.64132 0.997514 
2.183 4.55 4.53 0.7752 0.7850 11.83 539.649 2.72085 0.408439 
2.185 -0.54 -0.57 0.8218 0.8483 11.87 539.187 3.79946 -0.611427 
2.188 -1.31 -1.31 0.8517 0.7137 11.88 538.495 5.41563 -0.762748 
2.190 3.54 3.54 0.8034 0.6723 11.89 538.034 0.208747 0.207234 
2.192 7.29 7.30 0.7464 0.6660 11.88 537.574 1.28412 0.95919 
2.195 3.72 3.72 0.7950 0.8204 11.84 536.884 2.89546 0.24365 
2.197 -1.18 -1.18 0.7985 0.8987 11.87 536.424 3.96854 -0.73587 
2.199 -2.25 -2.22 0.8988 0.8944 11.90 535.965 5.0407 -0.946588 
2.202 4.26 4.29 0.7908 0.6943 11.89 535.277 0.364034 0.356047 
2.204 7.44 7.47 0.7433 0.7030 11.87 534.818 1.4339 0.990644 
2.207 3.02 3.02 0.7985 0.7997 11.84 534.132 3.03698 0.104419 
2.209 -1.61 -1.60 0.8375 0.8637 11.88 533.675 4.10456 -0.82089 
2.211 -1.99 -1.98 0.8374 0.8891 11.88 533.218 5.17122 -0.896569 
2.214 4.81 4.87 0.7956 0.6720 11.89 532.533 0.486324 0.467379 
2.216 7.48 7.52 0.7435 0.6728 11.87 532.077 1.55071 0.999798 
2.218 5.00 5.03 0.7985 0.8556 11.82 531.622 2.61418 0.503301 
2.221 -1.88 -1.87 0.8794 0.9119 11.88 530.939 4.20768 -0.875314 
2.223 -1.76 -1.73 0.8830 0.8894 11.89 530.485 5.26888 -0.849116 
2.225 2.71 2.75 0.6813 0.8105 11.89 530.031 0.0459782 0.045962 
2.228 7.48 7.50 0.7444 0.7565 11.86 529.35 1.63471 0.997958 
2.230 4.65 4.69 0.7288 0.7793 11.83 528.897 2.69273 0.433941 
2.233 -2.04 -2.03 0.8426 0.8846 11.88 528.218 4.27806 -0.907154 
2.235 -1.57 -1.56 0.8500 0.8890 11.88 527.766 5.33382 -0.813045 
2.237 3.02 3.03 0.7456 0.8357 11.89 527.314 0.105492 0.105296 
2.240 7.46 7.47 0.7341 0.7598 11.86 526.637 1.68608 0.993362 
2.242 4.47 4.45 0.6880 0.8418 11.82 526.186 2.73868 0.392101 
2.244 -0.53 -0.51 0.7288 0.7985 11.86 525.736 3.79038 -0.604217 
2.247 -1.46 -1.47 0.8188 0.7437 11.87 525.061 5.36623 -0.793751 
2.249 3.17 3.15 0.7469 0.7037 11.89 524.612 0.132497 0.132109 
2.252 7.46 7.45 0.6338 0.7580 11.86 523.938 1.70498 0.99101 
2.254 4.40 4.39 0.6806 0.7950 11.83 523.49 2.75219 0.379638 
2.256 -0.53 -0.57 0.7236 0.8669 11.86 523.042 3.79849 -0.610666 
2.259 -1.46 -1.47 0.8406 0.7279 11.86 522.37 5.36628 -0.793726 
2.261 3.14 3.13 0.7849 0.6856 11.89 521.923 0.127159 0.126816 
2.264 7.47 7.46 0.6745 0.8000 11.86 521.253 1.69159 0.992714 
2.266 4.49 4.48 0.7105 0.8252 11.83 520.807 2.73342 0.39693 
2.268 -0.45 -0.46 0.7426 0.9005 11.86 520.361 3.77437 -0.591385 
2.271 -1.55 -1.58 0.8268 0.7928 11.87 519.693 5.33411 -0.812875 
2.273 2.96 2.93 0.8301 0.7683 11.88 519.248 0.0896465 0.0895265 
2.276 7.49 7.48 0.6398 0.7181 11.86 518.581 1.64606 0.997169 
2.278 4.72 4.71 0.6888 0.7840 11.82 518.137 2.68255 0.443087 
2.281 -1.94 -1.95 0.8420 0.7461 11.88 517.472 4.23563 -0.888489 
2.283 -1.73 -1.76 0.8638 0.7862 11.87 517.029 5.26991 -0.848567 
2.285 2.62 2.58 0.7878 0.7730 11.89 516.587 0.0201232 0.0201218 
2.288 7.50 7.50 0.6753 0.7799 11.86 515.923 1.56856 0.999997 
2.290 5.09 5.06 0.7711 0.7920 11.82 515.482 2.59974 0.515724 
2.293 -1.70 -1.73 0.9229 0.8232 11.88 514.82 4.14486 -0.843233 
2.295 -1.96 -1.99 0.8280 0.8094 11.87 514.379 5.17384 -0.895407 
2.298 4.61 4.58 0.6574 0.7883 11.89 513.719 0.432473 0.419118 
2.300 7.50 7.44 0.7065 0.7687 11.87 513.279 1.45925 0.993785 
2.303 3.25 3.19 0.7432 0.8272 11.82 512.62 2.99777 0.143327 
2.305 -1.32 -1.39 0.7893 0.8074 11.87 512.181 4.02235 -0.771223 
2.307 -2.21 -2.24 0.8646 0.8012 11.87 511.743 5.04606 -0.944847 
2.310 3.99 3.93 0.7471 0.8011 11.89 511.086 0.296787 0.292449 
2.312 7.37 7.31 0.7133 0.7714 11.87 510.648 1.3183 0.968292 
2.315 3.97 3.91 0.7619 0.7394 11.82 509.993 2.84894 0.288497 
2.317 -0.79 -0.85 0.8056 0.8097 11.87 509.556 3.86827 -0.664388 
2.320 -1.35 -1.41 0.8810 0.7439 11.87 508.902 5.39563 -0.775532 
2.322 3.16 3.13 0.6791 0.7285 11.89 508.466 0.129593 0.12923 
2.325 7.51 7.45 0.7490 0.7380 11.85 507.814 1.65369 0.996567 
2.327 4.79 4.76 0.9831 0.7998 11.81 507.379 2.66866 0.455498 
2.330 -1.81 -1.85 0.8539 0.8915 11.88 506.728 4.1895 -0.866378 
2.332 -1.91 -1.92 0.8381 0.8485 11.87 506.294 5.2023 -0.882375 
2.335 4.63 4.60 0.7623 0.7505 11.89 505.644 0.436696 0.422948 
2.337 7.48 7.44 0.7410 0.7319 11.87 505.211 1.44733 0.992388 
2.340 3.40 3.39 0.8374 0.9230 11.83 504.562 2.96167 0.178953 
2.342 -1.18 -1.19 0.8831 0.8851 11.87 504.131 3.97015 -0.736955 
2.345 -1.10 -1.08 0.8641 0.7968 11.87 503.483 5.48124 -0.718707 
2.347 3.52 3.51 0.7559 0.7671 11.89 503.052 0.204379 0.202959 
2.350 7.45 7.45 0.7194 0.7643 11.85 502.407 1.71224 0.990013 
2.352 4.57 4.56 0.7958 0.8043 11.83 501.976 2.71641 0.412485 
2.355 -1.90 -1.91 0.8764 0.8016 11.88 501.332 4.22105 -0.881703 
2.357 -1.86 -1.86 0.8514 0.7995 11.88 500.903 5.22307 -0.872411 
2.360 4.64 4.63 0.7282 0.7747 11.89 500.26 0.441309 0.427124 
2.362 7.46 7.45 0.7197 0.7511 11.87 499.832 1.44119 0.991612 
2.365 3.52 3.49 0.7025 0.7644 11.82 499.19 2.9394 0.20082 
2.367 -1.07 -1.07 0.8037 0.8039 11.87 498.763 3.93714 -0.714244 
2.370 -1.26 -1.26 0.8589 0.8554 11.86 498.122 5.43214 -0.751968 
2.372 3.22 3.22 0.7490 0.7783 11.89 497.696 0.144563 0.14406 
2.375 7.50 7.47 0.6249 0.7422 11.85 497.057 1.63637 0.997851 
2.377 4.95 4.95 0.6682 0.6685 11.82 496.631 2.62985 0.489699 
2.380 -1.64 -1.65 0.8756 0.9045 11.88 495.994 4.11847 -0.828752 
2.382 -2.11 -2.11 0.8502 0.8729 11.87 495.569 5.10982 -0.92206 
2.385 4.04 4.03 0.7463 0.7477 11.89 494.933 0.312067 0.307026 
2.387 7.32 7.32 0.6313 0.6167 11.87 494.509 1.3013 0.963904 
2.390 4.25 4.25 0.8729 0.8497 11.83 493.875 2.78356 0.350437 
2.392 -0.43 -0.46 0.8303 0.8724 11.86 493.452 3.77067 -0.588399 
2.395 -1.78 -1.81 0.7510 0.8234 11.87 492.818 5.24976 -0.859058 
2.398 4.66 4.63 0.8311 0.7644 11.89 492.186 0.443762 0.42934 
2.400 7.45 7.45 0.7726 0.7127 11.87 491.764 1.4275 0.989751 
2.403 3.72 3.66 0.7960 0.9176 11.83 491.133 2.90153 0.237763 
2.405 -0.86 -0.89 0.8425 0.7633 11.87 490.712 3.88317 -0.675449 
2.408 -1.48 -1.53 0.8745 0.8535 11.86 490.083 5.35404 -0.801106 
2.410 2.78 2.72 0.8243 0.7854 11.88 489.663 0.0503947 0.0503734 
2.413 7.52 7.46 0.7097 0.6319 11.86 489.034 1.51813 0.998613 
2.416 3.31 3.25 0.7466 0.8412 11.83 488.407 2.98397 0.156967 
2.418 -1.13 -1.17 0.9087 0.8605 11.87 487.988 3.96016 -0.730167 
2.421 -1.26 -1.32 0.7220 0.8161 11.87 487.362 5.42287 -0.758047 
2.423 3.10 3.04 0.6401 0.7674 11.88 486.945 0.113784 0.113539 
2.426 7.53 7.47 0.7262 0.7783 11.86 486.32 1.57337 0.999997 
2.428 5.34 5.28 0.7991 0.8584 11.82 485.903 2.54538 0.56151 
2.431 -1.26 -1.32 0.8527 0.7784 11.88 485.28 4.00185 -0.758007 
2.434 -1.15 -1.21 0.8620 0.8638 11.87 484.657 5.45644 -0.735733 
2.436 3.25 3.16 0.7677 0.7769 11.89 484.242 0.141943 0.141467 
2.439 7.53 7.47 0.7204 0.6391 11.86 483.62 1.59342 0.999744 
2.441 5.28 5.21 0.7831 0.7224 11.82 483.206 2.56004 0.549319 
2.444 -1.28 -1.34 0.8269 0.8462 11.88 482.586 4.00842 -0.762279 
2.447 -1.14 -1.23 0.8456 0.8574 11.87 481.966 5.45494 -0.736748 
2.449 3.21 3.14 0.7456 0.6456 11.89 481.554 0.135065 0.134655 
2.452 7.53 7.47 0.7467 0.8026 11.86 480.935 1.57849 0.99997 
2.454 5.38 5.29 0.7403 0.8099 11.83 480.524 2.53974 0.566169 
2.457 -1.19 -1.25 0.8779 0.9338 11.87 479.907 3.98008 -0.743632 
2.460 -1.26 -1.35 0.7865 0.8727 11.87 479.291 5.41857 -0.760848 
2.462 3.01 2.92 0.7680 0.7835 11.88 478.88 0.0933477 0.0932122 
2.465 7.54 7.45 0.7396 0.6650 11.86 478.266 1.52876 0.999117 
2.468 3.44 3.34 0.7313 0.7988 11.83 477.652 2.96233 0.178307 
2.470 -0.94 -1.06 0.7558 0.9116 11.87 477.243 3.91702 -0.700019 
2.473 -1.46 -1.58 0.8537 0.7679 11.87 476.63 5.34752 -0.804994 
2.475 2.63 2.54 0.7498 0.6625 11.88 476.222 0.0169827 0.0169819 
2.478 7.52 7.40 0.6887 0.7638 11.86 475.611 1.44443 0.992026 
2.481 3.90 3.78 0.8249 0.8767 11.82 475 2.87004 0.268231 
2.483 -0.57 -0.70 0.8916 0.7387 11.87 474.593 3.81943 -0.627107 
2.486 -1.75 -1.88 0.7938 0.8814 11.87 473.984 5.24199 -0.86301 
2.489 4.43 4.28 0.7638 0.7379 11.89 473.376 0.379538 0.370491 
2.491 7.41 7.29 0.7673 0.6823 11.87 472.97 1.32568 0.970109 
2.494 4.50 4.37 0.7037 0.7840 11.84 472.363 2.74338 0.387773 
2.497 -1.69 -1.82 0.9070 0.7451 11.88 471.757 4.15925 -0.850882 
2.499 -2.06 -2.19 0.8364 0.7832 11.87 471.353 5.10216 -0.924995 
2.502 3.73 3.57 0.7229 0.7731 11.89 470.748 0.231826 0.229755 
2.505 7.55 7.42 0.7786 0.7930 11.86 470.143 1.64286 0.997405 
2.507 5.22 5.08 0.8343 0.6718 11.83 469.741 2.58254 0.53038 
2.510 -1.19 -1.32 0.7619 0.8944 11.88 469.138 3.99056 -0.750599 
2.513 -1.29 -1.45 0.8260 0.7854 11.87 468.536 5.39677 -0.77481 
2.515 2.82 2.68 0.8215 0.7226 11.88 468.135 0.0500542 0.0500333 
2.518 7.53 7.40 0.6337 0.6950 11.87 467.534 1.45326 0.9931 
2.521 3.97 3.86 0.8401 0.7707 11.83 466.933 2.85466 0.283015 
2.523 -0.44 -0.58 0.8486 0.7346 11.87 466.534 3.78792 -0.602261 
2.526 -1.88 -2.02 0.8466 0.8457 11.87 465.935 5.18633 -0.889778 
2.529 4.05 3.91 0.7906 0.8008 11.89 465.337 0.29975 0.295281 
2.532 7.52 7.40 0.6632 0.7268 11.85 464.739 1.69456 0.99235 
2.534 5.03 4.92 0.7060 0.7927 11.83 464.341 2.62345 0.49527 
2.537 -1.26 -1.40 0.8635 0.7998 11.88 463.745 4.01528 -0.7667 
2.540 -1.29 -1.40 0.7974 0.7753 11.87 463.15 5.40532 -0.769375 
2.542 2.81 2.67 0.6806 0.7334 11.88 462.753 0.0478432 0.0478249 
2.545 7.53 7.38 0.7870 0.7342 11.87 462.159 1.43492 0.990782 
2.548 4.12 4.03 0.8593 0.6691 11.83 461.566 2.82021 0.315882 
2.551 -1.81 -1.93 0.8958 0.8764 11.88 460.974 4.20372 -0.873393 
2.553 -2.03 -2.13 0.8790 0.8573 11.87 460.579 5.12507 -0.916047 
2.556 3.65 3.56 0.7573 0.7390 11.89 459.988 0.222443 0.220613 
2.559 7.54 7.45 0.8192 0.7584 11.86 459.397 1.60122 0.999537 
2.561 5.46 5.37 0.8099 0.8007 11.83 459.004 2.51943 0.582795 
2.564 -0.89 -0.95 0.8457 0.8336 11.88 458.415 3.89526 -0.684319 
2.567 -1.70 -1.79 0.8839 0.8493 11.87 457.826 5.26933 -0.848877 
2.570 4.29 4.22 0.7501 0.6194 11.89 457.238 0.358445 0.350819 
2.572 7.31 7.25 0.7474 0.6033 11.88 456.847 1.27233 0.95579 
2.575 4.94 4.85 0.8020 0.8135 11.83 456.26 2.6417 0.479329 
2.578 -1.28 -1.35 0.8753 0.9345 11.88 455.675 4.00931 -0.762856 
2.581 -1.39 -1.49 0.8672 0.8541 11.87 455.09 5.37517 -0.788287 
2.583 2.54 2.47 0.7626 0.8147 11.88 454.7 0.00157517 0.00157517 
2.586 7.43 7.36 0.7407 0.6512 11.88 454.116 1.36451 0.978798 
2.589 4.55 4.49 0.8018 0.7932 11.82 453.533 2.72569 0.404015 
2.592 -1.51 -1.58 0.8271 0.8927 11.88 452.951 4.08513 -0.809637 
2.595 -1.19 -1.26 0.8270 0.8507 11.87 452.37 5.44282 -0.744889 
2.597 2.85 2.78 0.7470 0.8311 11.89 451.982 0.0637895 0.0637463 
2.600 7.48 7.41 0.6920 0.7453 11.87 451.402 1.41858 0.988437 
2.603 4.34 4.27 0.8491 0.8393 11.84 450.823 2.77162 0.361587 
2.606 -1.62 -1.69 0.8294 0.7663 11.88 450.244 4.12293 -0.831243 
2.609 -1.09 -1.16 0.8194 0.8395 11.87 449.666 5.47251 -0.724753 
2.611 2.97 2.91 0.7410 0.7773 11.89 449.281 0.0880782 0.0879644 
2.614 7.49 7.42 0.6252 0.7443 11.86 448.704 1.43477 0.990762 
2.617 4.30 4.24 0.8211 0.8065 11.83 448.128 2.77973 0.354019 
2.620 -1.64 -1.68 0.8939 0.8875 11.88 447.553 4.12296 -0.831259 
2.623 -1.12 -1.19 0.8368 0.8281 11.87 446.978 5.46447 -0.730269 
2.625 2.91 2.84 0.7395 0.7758 11.89 446.596 0.0746671 0.0745978 
2.628 7.47 7.40 0.6400 0.7357 11.86 446.022 1.41331 0.987624 
2.631 4.44 4.37 0.8530 0.7516 11.83 445.45 2.75023 0.38145 
2.634 -1.53 -1.57 0.9160 0.8856 11.88 444.878 4.08543 -0.809817 
2.637 -1.27 -1.34 0.8394 0.7853 11.87 444.307 5.41892 -0.760615 
2.639 2.64 2.60 0.7407 0.7593 11.88 443.926 0.0237824 0.0237802 
2.642 7.42 7.35 0.6079 0.7419 11.87 443.356 1.35442 0.976682 
2.645 4.73 4.69 0.8156 0.6733 11.83 442.787 2.68335 0.442371 
2.648 -1.28 -1.35 0.8493 0.8927 11.88 442.219 4.01058 -0.763673 
2.651 -1.52 -1.59 0.8594 0.8569 11.87 441.651 5.3361 -0.811718 
2.654 4.37 4.31 0.6473 0.7651 11.89 441.084 0.376732 0.367883 
2.656 7.29 7.22 0.6070 0.7419 11.87 440.707 1.25833 0.951579 
2.659 5.20 5.13 0.8205 0.7674 11.82 440.141 2.57932 0.533109 
2.662 -0.90 -0.97 0.7670 0.8826 11.88 439.576 3.89861 -0.686759 
2.665 -1.86 -1.90 0.8554 0.8715 11.87 439.011 5.21621 -0.875743 
2.668 3.76 3.70 0.7597 0.7572 11.89 438.448 0.248933 0.24637 
2.671 7.52 7.48 0.7302 0.6268 11.85 437.885 1.56315 0.999971 
2.674 3.85 3.78 0.8022 0.8262 11.83 437.323 2.87568 0.262789 
2.677 -1.79 -1.86 0.9270 0.8118 11.89 436.761 4.18653 -0.864891 
2.679 -2.17 -2.23 0.9210 0.7998 11.87 436.387 5.05949 -0.940364 
2.682 2.95 2.89 0.7893 0.7694 11.88 435.827 0.0843441 0.0842441 
2.685 7.45 7.39 0.7225 0.6750 11.86 435.268 1.39071 0.983828 
2.688 4.69 4.62 0.7931 0.7825 11.82 434.709 2.69539 0.431541 
2.691 -1.25 -1.31 0.8575 0.8205 11.88 434.151 3.9984 -0.755757 
2.694 -1.63 -1.69 0.8336 0.8896 11.87 433.593 5.29974 -0.832412 
2.697 4.09 4.02 0.7759 0.7369 11.89 433.037 0.316221 0.310978 
2.700 7.53 7.46 0.7152 0.7224 11.85 432.481 1.61422 0.999057 
2.703 3.68 3.61 0.7643 0.7267 11.83 431.926 2.91055 0.22899 
2.705 -0.41 -0.50 0.8098 0.8177 11.88 431.556 3.77385 -0.590966 
2.708 -2.15 -2.22 0.7539 0.8730 11.88 431.002 5.06741 -0.93764 
2.711 2.91 2.85 0.8360 0.7402 11.88 430.449 0.0761229 0.0760494 
2.714 7.43 7.36 0.7040 0.6969 11.87 429.896 1.36636 0.979176 
2.717 4.87 4.80 0.8153 0.6818 11.82 429.344 2.65495 0.467663 
2.720 -1.05 -1.12 0.8755 0.8757 11.87 428.793 3.94188 -0.717554 
2.723 -1.82 -1.89 0.8654 0.8808 11.87 428.242 5.22715 -0.870408 
2.726 3.67 3.58 0.7128 0.7555 11.88 427.693 0.227597 0.225638 
2.729 7.54 7.44 0.5975 0.6316 11.85 427.144 1.50958 0.998127 
2.732 4.27 4.17 0.8334 0.8071 11.82 426.595 2.78991 0.344477 
2.735 -1.47 -1.53 0.8321 0.8662 11.88 426.048 4.0686 -0.799828 
2.738 -1.48 -1.58 0.8576 0.8534 11.86 425.501 5.34565 -0.806102 
2.741 4.19 4.12 0.7335 0.6286 11.89 424.954 0.337875 0.331483 
2.744 7.54 7.45 0.7289 0.7667 11.85 424.409 1.61165 0.999166 
2.747 3.82 3.73 0.7591 0.8908 11.82 423.864 2.88378 0.254963 
2.750 -1.69 -1.79 0.9070 0.9210 11.88 423.32 4.15429 -0.848262 
2.753 -1.24 -1.34 0.7658 0.7720 11.87 422.776 5.42316 -0.75786 
2.756 4.51 4.45 0.7141 0.7512 11.90 422.234 0.407217 0.396056 
2.759 7.52 7.43 0.6317 0.7037 11.84 421.692 1.67283 0.994799 
2.761 5.48 5.38 0.6906 0.8019 11.81 421.331 2.51568 0.585841 
2.764 -0.42 -0.52 0.8563 0.8984 11.87 420.79 3.77859 -0.594781 
2.767 -2.20 -2.27 0.8684 0.7477 11.86 420.249 5.03987 -0.946854 
2.770 2.62 2.55 0.7370 0.7822 11.88 419.71 0.0163581 0.0163573 
2.773 7.33 7.23 0.6370 0.6022 11.86 419.171 1.27441 0.956398 
2.776 5.40 5.33 0.8847 0.8004 11.82 418.633 2.53085 0.573478 
2.779 -0.47 -0.54 0.9175 0.8427 11.86 418.096 3.78567 -0.600462 
2.782 -2.20 -2.27 0.8680 0.8456 11.87 417.559 5.03888 -0.947172 
2.785 2.57 2.50 0.7407 0.7929 11.88 417.023 0.00730294 0.00730287 
2.788 7.29 7.22 0.7153 0.7108 11.86 416.487 1.2573 0.951261 
2.792 3.63 3.56 0.8202 0.7739 11.83 415.775 2.92147 0.218352 
2.795 -1.73 -1.82 0.8595 0.9483 11.89 415.241 4.16772 -0.855301 
2.798 -1.29 -1.36 0.8506 0.8625 11.86 414.708 5.41238 -0.764848 
2.801 4.37 4.27 0.6169 0.6247 11.88 414.175 0.372253 0.363715 
2.804 7.53 7.46 0.7761 0.7222 11.84 413.644 1.61372 0.999079 
2.807 3.96 3.88 0.7282 0.8207 11.82 413.113 2.85358 0.284043 
2.810 -1.53 -1.60 0.9265 0.8974 11.88 412.582 4.09186 -0.813572 
2.813 -1.54 -1.61 0.8494 0.6998 11.86 412.053 5.32855 -0.816104 
2.816 3.92 3.85 0.7450 0.7252 11.89 411.524 0.280463 0.276801 
2.819 7.53 7.46 0.6601 0.7551 11.85 410.995 1.51398 0.998386 
2.822 4.45 4.41 0.8563 0.6841 11.81 410.468 2.74591 0.38544 
2.825 -1.17 -1.24 0.7473 0.9185 11.87 409.941 3.97626 -0.741071 
2.828 -1.87 -1.94 0.8519 0.8408 11.87 409.414 5.20503 -0.881088 
2.831 3.28 3.21 0.6390 0.7608 11.88 408.889 0.149033 0.148482 
2.834 7.45 7.36 0.7099 0.7241 11.86 408.364 1.37465 0.980825 
2.837 5.12 5.05 0.7962 0.8523 11.81 407.84 2.59869 0.516621 
2.840 -0.61 -0.68 0.8925 0.8314 11.87 407.316 3.82117 -0.628461 
2.843 -2.19 -2.27 0.7936 0.8647 11.86 406.793 5.04207 -0.946146 
2.847 4.41 4.34 0.6261 0.7317 11.89 406.097 0.384314 0.374923 
2.850 7.53 7.46 0.7319 0.6206 11.84 405.576 1.60156 0.999527 
2.853 4.13 4.06 0.8237 0.8111 11.82 405.055 2.81725 0.318687 
2.856 -1.35 -1.42 0.9561 0.8880 11.87 404.535 4.03137 -0.776934 
2.859 -1.77 -1.84 0.7205 0.8619 11.86 404.016 5.24394 -0.862022 
2.862 3.39 3.32 0.7309 0.7281 11.89 403.497 0.171764 0.170921 
2.865 7.45 7.38 0.6991 0.7488 11.86 402.979 1.38122 0.982084 
2.868 5.16 5.09 0.7722 0.8672 11.81 402.462 2.58912 0.524792 
2.871 -0.49 -0.59 0.9015 0.9200 11.87 401.945 3.79547 -0.608271 
2.875 -1.32 -1.39 0.8677 0.8396 11.86 401.257 5.40153 -0.771791 
2.878 4.11 4.04 0.7258 0.6826 11.89 400.742 0.321089 0.3156 
2.881 7.53 7.46 0.7116 0.6923 11.85 400.228 1.52229 0.998824 
2.884 4.57 4.50 0.6901 0.8022 11.82 399.714 2.72194 0.407443 
2.887 -0.97 -1.05 0.8952 0.9292 11.88 399.201 3.92006 -0.702186 
2.890 -2.08 -2.12 0.8828 0.7649 11.86 398.688 5.11663 -0.9194 
2.893 2.68 2.61 0.7343 0.7370 11.88 398.176 0.0284879 0.028484 
2.897 7.51 7.47 0.7309 0.7125 11.84 397.495 1.61949 0.998815 
2.900 4.16 4.09 0.8492 0.8380 11.82 396.985 2.81095 0.324648 
2.903 -1.25 -1.32 0.8947 0.8713 11.88 396.475 4.00089 -0.757382 
2.906 -1.91 -1.98 0.7846 0.8791 11.87 395.966 5.18929 -0.88842 
2.909 3.00 2.93 0.7143 0.7769 11.89 395.458 0.0929891 0.0928552 
2.912 7.32 7.25 0.6638 0.7251 11.86 394.95 1.27835 0.95754 
2.916 3.94 3.87 0.7629 0.8509 11.82 394.274 2.85646 0.281289 
2.919 -1.37 -1.44 0.9028 0.9333 11.88 393.768 4.03827 -0.781254 
2.922 -1.84 -1.91 0.7676 0.7307 11.86 393.262 5.21856 -0.874608 
2.925 3.10 3.03 0.7061 0.7477 11.89 392.757 0.11415 0.113902 
2.928 7.34 7.27 0.6100 0.7303 11.86 392.253 1.29141 0.961226 
2.932 3.94 3.85 0.8190 0.8380 11.83 391.582 2.85875 0.279088 
2.935 -1.35 -1.42 0.9147 0.8224 11.88 391.079 4.03249 -0.777635 
2.938 -1.87 -1.94 0.8370 0.7466 11.87 390.577 5.20472 -0.881232 
2.941 3.00 2.92 0.7946 0.7353 11.89 390.076 0.0922658 0.0921349 
2.944 7.31 7.21 0.6689 0.7314 11.86 389.575 1.26149 0.952545 
2.948 4.11 4.07 0.8008 0.8109 11.83 388.908 2.81812 0.317857 
2.951 -1.21 -1.25 0.9025 0.8846 11.88 388.409 3.98385 -0.746148 
2.954 -2.01 -2.05 0.7173 0.8706 11.87 387.91 5.14808 -0.906578 
2.957 2.66 2.62 0.7387 0.7334 11.88 387.412 0.0276305 0.027627 
2.961 7.52 7.48 0.7184 0.6334 11.85 386.749 1.57562 0.999988 
2.964 4.50 4.46 0.8221 0.8071 11.82 386.253 2.73488 0.395595 
2.967 -0.88 -0.95 0.8372 0.8186 11.88 385.757 3.89264 -0.682408 
2.970 -2.20 -2.24 0.7049 0.8883 11.87 385.262 5.04892 -0.943904 
2.974 4.04 3.97 0.6997 0.7351 11.89 384.602 0.305138 0.300425 
2.977 7.50 7.43 0.6063 0.6833 11.85 384.109 1.45796 0.993641 
2.980 5.07 5.00 0.8184 0.8022 11.82 383.616 2.6093 0.507512 
2.984 -1.67 -1.74 0.9037 0.9356 11.88 382.959 4.14212 -0.841755 
2.987 -1.65 -1.72 0.8401 0.7918 11.86 382.467 5.29001 -0.837762 
2.990 3.30 3.23 0.7113 0.7357 11.89 381.976 0.153248 0.152649 
2.993 7.35 7.28 0.6068 0.6125 11.86 381.486 1.2982 0.963074 
2.997 4.10 4.03 0.8621 0.7668 11.83 380.833 2.82251 0.313697 
3.000 -1.14 -1.18 0.8965 0.8731 11.88 380.344 3.96403 -0.732807 
3.003 -2.09 -2.15 0.7823 0.8732 11.86 379.856 5.10409 -0.924262 
3.007 4.20 4.13 0.7229 0.6101 11.89 379.206 0.3387 0.332262 
3.010 7.51 7.44 0.7019 0.7563 11.86 378.719 1.47534 0.995448 
3.013 5.08 4.98 0.7907 0.8256 11.82 378.233 2.61053 0.50645 
3.017 -1.62 -1.69 0.7773 0.7774 11.88 377.586 4.12184 -0.830637 
3.020 -1.74 -1.83 0.8139 0.8468 11.87 377.101 5.25363 -0.85707 
3.023 3.04 2.97 0.6329 0.6860 11.88 376.617 0.10078 0.100609 
3.027 7.53 7.46 0.7064 0.7347 11.85 375.972 1.60564 0.999393 
3.030 4.52 4.45 0.7624 0.7526 11.83 375.49 2.73259 0.397697 
3.033 -0.74 -0.83 0.9006 0.7867 11.88 375.008 3.85809 -0.656748 
3.037 -1.46 -1.53 0.7574 0.8927 11.87 374.366 5.35652 -0.799624 
3.040 3.50 3.44 0.7222 0.7846 11.89 373.885 0.195468 0.194225 
3.043 7.37 7.30 0.6978 0.7194 11.86 373.405 1.31616 0.967756 
3.047 4.18 4.09 0.8526 0.8344 11.83 372.766 2.80819 0.327264 
3.050 -0.99 -1.06 0.8453 0.8908 11.88 372.288 3.92553 -0.706071 
3.053 -2.18 -2.28 0.7420 0.7069 11.87 371.81 5.04143 -0.946352 
3.057 3.74 3.67 0.6900 0.7336 11.89 371.173 0.243896 0.241485 
3.060 7.42 7.35 0.6674 0.6235 11.86 370.697 1.35646 0.977118 
3.064 4.03 3.96 0.7491 0.7026 11.84 370.062 2.83766 0.299271 
3.067 -1.07 -1.14 0.9276 0.9265 11.88 369.587 3.9469 -0.721045 
3.070 -2.16 -2.26 0.8910 0.8471 11.87 369.113 5.05471 -0.941977 
3.074 3.75 3.68 0.7133 0.7082 11.89 368.481 0.246401 0.243915 
3.077 7.41 7.34 0.7526 0.6876 11.86 368.008 1.3509 0.97592 
3.081 4.11 4.04 0.8605 0.8644 11.83 367.378 2.82136 0.31479 
3.084 -0.97 -1.07 0.8844 0.8774 11.88 366.907 3.92255 -0.703959 
3.088 -1.36 -1.43 0.7623 0.7568 11.87 366.279 5.38861 -0.779946 
3.091 3.56 3.46 0.7214 0.7299 11.89 365.809 0.203317 0.201919 
3.094 7.35 7.28 0.7719 0.6355 11.85 365.339 1.2998 0.963506 
3.098 4.41 4.32 0.8160 0.8188 11.83 364.714 2.7596 0.372774 
3.101 -0.73 -0.80 0.9364 0.8984 11.88 364.246 3.8528 -0.65275 
3.105 -1.60 -1.67 0.8063 0.8730 11.86 363.622 5.30823 -0.82768 
3.108 3.12 3.02 0.6736 0.7131 11.89 363.155 0.114973 0.11472 
3.112 7.55 7.45 0.7024 0.6102 11.85 362.534 1.56604 0.999989 
3.115 4.90 4.80 0.7662 0.8433 11.83 362.069 2.65271 0.469638 
3.119 -1.55 -1.62 0.9541 0.9125 11.88 361.449 4.09944 -0.817953 
3.122 -1.91 -2.01 0.7332 0.8318 11.87 360.985 5.18285 -0.891357 
3.126 4.23 4.13 0.6820 0.5854 11.88 360.367 0.342064 0.335432 
3.129 7.48 7.41 0.7181 0.7021 11.86 359.904 1.42224 0.988986 
3.133 3.92 3.85 1.0451 0.7861 11.83 359.289 2.86032 0.277581 
3.136 -1.03 -1.11 0.9232 0.7644 11.88 358.827 3.93726 -0.714331 
3.140 -1.43 -1.48 0.6852 0.7240 11.87 358.213 5.37103 -0.790822 
3.143 3.34 3.27 0.7329 0.7373 11.88 357.753 0.161568 0.160866 
3.147 7.54 7.46 0.6157 0.7253 11.84 357.141 1.59105 0.999795 
3.150 4.84 4.77 0.8381 0.8310 11.82 356.683 2.66156 0.461811 
3.154 -1.52 -1.59 0.9128 0.7897 11.88 356.072 4.08676 -0.810596 
3.157 -1.98 -2.06 0.8467 0.8379 11.87 355.615 5.15406 -0.904037 
3.161 3.97 3.90 0.6972 0.7627 11.89 355.007 0.291817 0.287693 
3.164 7.42 7.35 0.7680 0.7190 11.85 354.551 1.35592 0.977004 
3.168 4.33 4.28 0.8683 0.8160 11.83 353.944 2.77261 0.360666 
3.171 -0.65 -0.73 0.7907 0.8993 11.88 353.49 3.83353 -0.638033 
3.175 -1.77 -1.84 0.7752 0.8534 11.88 352.885 5.24598 -0.860986 
3.178 2.62 2.58 0.6983 0.7357 11.88 352.432 0.0205423 0.0205409 
3.182 7.49 7.41 0.7087 0.7339 11.84 351.828 1.42876 0.98993 
3.186 4.05 3.98 0.7939 0.8664 11.82 351.226 2.83457 0.302223 
3.189 -0.86 -0.93 0.7720 0.8415 11.89 350.776 3.88735 -0.678526 
3.193 -1.66 -1.73 0.7825 0.7766 11.87 350.175 5.28895 -0.838344 
3.196 2.81 2.74 0.8041 0.7369 11.89 349.726 0.0553886 0.0553603 
3.200 7.50 7.43 0.7104 0.7983 11.85 349.127 1.45279 0.993046 
3.204 3.98 3.91 0.8286 0.8335 11.83 348.53 2.84781 0.289576 
3.207 -0.88 -0.95 0.8749 0.9445 11.88 348.082 3.8925 -0.682305 
3.211 -1.67 -1.74 0.7140 0.7760 11.86 347.487 5.28334 -0.841386 
3.214 2.74 2.67 0.7105 0.7350 11.89 347.04 0.0417239 0.0417118 
3.218 7.49 7.41 0.7130 0.6872 11.84 346.447 1.4284 0.989879 
3.222 4.16 4.07 0.7264 0.8420 11.81 345.854 2.8127 0.322991 
3.225 -0.71 -0.79 0.8965 0.7792 11.88 345.41 3.84938 -0.650152 
3.229 -1.81 -1.88 0.7912 0.8022 11.87 344.819 5.22954 -0.869232 
3.233 4.14 4.04 0.6909 0.6969 11.89 344.228 0.32415 0.318503 
3.236 7.43 7.33 0.6037 0.8028 11.85 343.786 1.35595 0.977009 
3.240 4.55 4.45 0.8637 0.8319 11.82 343.198 2.72963 0.400412 
3.244 -1.54 -1.64 0.8595 0.8989 11.88 342.611 4.10095 -0.818823 
3.247 -2.04 -2.11 0.7157 0.7663 11.87 342.171 5.1279 -0.914909 
3.251 3.59 3.52 0.6879 0.6133 11.88 341.585 0.211937 0.210354 
3.255 7.54 7.46 0.7640 0.7420 11.83 341.001 1.57682 0.999982 
3.258 5.12 5.04 0.7400 0.7480 11.81 340.563 2.59894 0.516406 
3.262 -1.11 -1.19 0.8455 0.9144 11.88 339.98 3.95974 -0.72988 
3.266 -1.57 -1.65 0.7909 0.8176 11.88 339.398 5.3182 -0.822038 
3.269 2.81 2.71 0.6969 0.7563 11.88 338.963 0.0523431 0.0523192 
3.273 7.48 7.38 0.7171 0.7187 11.85 338.383 1.40674 0.986573 
3.277 4.42 4.32 0.8378 0.8370 11.83 337.804 2.75883 0.373488 
3.280 -0.38 -0.51 0.8792 0.9272 11.88 337.37 3.77137 -0.588964 
3.284 -2.04 -2.14 0.8024 0.8708 11.87 336.793 5.11941 -0.918306 
3.288 3.46 3.35 0.7100 0.7077 11.89 336.216 0.181948 0.180946 
3.292 7.56 7.43 0.6819 0.7676 11.84 335.641 1.52537 0.998969 
3.295 5.43 5.30 0.7547 0.7985 11.80 335.21 2.53143 0.572997 
3.299 -0.77 -0.90 0.9403 0.9503 11.88 334.636 3.87084 -0.666308 
3.303 -1.83 -1.96 0.8561 0.8935 11.86 334.064 5.20795 -0.879701 
3.307 3.85 3.72 0.7110 0.7099 11.89 333.492 0.259591 0.256686 
3.310 7.33 7.19 0.6242 0.5940 11.86 333.064 1.25921 0.951849 
3.314 5.19 5.05 0.8205 0.7755 11.81 332.494 2.59004 0.52401 
3.318 -0.94 -1.07 0.7969 0.9251 11.89 331.925 3.91859 -0.701143 
3.322 -1.75 -1.86 0.8395 0.7624 11.86 331.357 5.24487 -0.86155 
3.326 3.96 3.85 0.6541 0.6241 11.89 330.79 0.285694 0.281823 
3.329 7.35 7.22 0.6993 0.6789 11.85 330.365 1.27721 0.957213 
3.333 5.14 5.03 0.7734 0.7572 11.81 329.8 2.59726 0.517848 
3.337 -0.94 -1.05 0.9745 0.9168 11.88 329.235 3.91505 -0.69861 
3.341 -1.79 -1.90 0.8587 0.8319 11.86 328.672 5.23058 -0.868718 
3.345 3.84 3.73 0.7004 0.7655 11.88 328.109 0.260673 0.257731 
3.349 7.55 7.44 0.7254 0.7122 11.83 327.548 1.57171 1 
3.352 5.32 5.23 0.8264 0.8205 11.81 327.127 2.55351 0.554769 
3.356 -0.75 -0.83 0.8687 0.9465 11.88 326.567 3.86062 -0.658651 
3.360 -1.95 -2.04 0.8551 0.7428 11.86 326.009 5.16549 -0.899095 
3.364 3.46 3.38 0.5926 0.7047 11.88 325.451 0.184942 0.18389 
3.368 7.52 7.44 0.7024 0.6860 11.84 324.894 1.48535 0.996352 
3.372 4.31 4.20 0.8555 0.8774 11.82 324.338 2.78354 0.350454 
3.376 -1.47 -1.59 0.8872 0.9360 11.88 323.783 4.0795 -0.806321 
3.379 -2.16 -2.27 0.9026 0.7810 11.86 323.367 5.05002 -0.943544 
3.383 2.84 2.75 0.7113 0.6956 11.88 322.814 0.0589139 0.0588798 
3.387 7.43 7.32 0.6167 0.6621 11.84 322.261 1.34879 0.975457 
3.391 4.96 4.88 0.7210 0.8219 11.82 321.71 2.63645 0.483931 
3.395 -0.97 -1.06 0.9193 0.7825 11.88 321.159 3.92191 -0.703508 
3.399 -1.86 -1.95 0.8369 0.7831 11.86 320.609 5.20518 -0.881018 
3.403 3.55 3.46 0.6741 0.5880 11.89 320.061 0.203056 0.201664 
3.407 7.54 7.42 0.6410 0.7159 11.83 319.513 1.48193 0.996054 
3.411 4.41 4.32 0.7874 0.8498 11.82 318.966 2.75861 0.373685 
3.415 -1.35 -1.43 0.8333 0.9426 11.88 318.42 4.03311 -0.778028 
3.419 -1.60 -1.69 0.7973 0.6887 11.86 317.875 5.30543 -0.829243 
3.423 3.98 3.90 0.6324 0.7071 11.89 317.331 0.292389 0.28824 
3.427 7.54 7.46 0.7078 0.6952 11.83 316.788 1.56036 0.999946 
3.431 4.09 4.01 0.8788 0.8656 11.83 316.246 2.82615 0.310234 
3.434 -0.41 -0.50 0.9739 0.8983 11.88 315.84 3.77408 -0.591153 
3.438 -2.18 -2.30 0.8757 0.8329 11.86 315.3 5.03609 -0.948065 
3.442 2.62 2.51 0.6885 0.6918 11.89 314.76 0.0127541 0.0127538 
3.446 7.33 7.22 0.6431 0.6026 11.85 314.221 1.27045 0.955233 
3.450 5.45 5.33 0.7712 0.8910 11.81 313.684 2.52599 0.577452 
3.454 -0.43 -0.52 0.8939 0.7989 11.88 313.147 3.77938 -0.59542 
3.458 -2.19 -2.31 0.8578 0.8034 11.86 312.611 5.03063 -0.949788 
3.463 4.08 3.96 0.7891 0.6473 11.89 311.942 0.308492 0.303622 
3.467 7.57 7.43 0.5970 0.7078 11.82 311.409 1.55493 0.999874 
3.471 4.24 4.12 0.8528 0.7996 11.83 310.876 2.79923 0.335715 
3.475 -1.36 -1.48 0.9298 0.9392 11.88 310.344 4.0414 -0.783207 
3.479 -1.64 -1.78 0.8417 0.8435 11.86 309.812 5.28145 -0.842409 
3.483 3.74 3.60 0.6580 0.6957 11.89 309.282 0.236186 0.233996 
3.487 7.55 7.40 0.6711 0.6680 11.84 308.753 1.47199 0.995123 
3.491 4.68 4.54 0.8419 0.7196 11.82 308.225 2.70568 0.422235 
3.495 -1.00 -1.15 0.9027 0.8987 11.88 307.697 3.93726 -0.714332 
3.499 -1.90 -2.08 0.7517 0.8454 11.86 307.171 5.16673 -0.898549 
3.503 3.14 2.96 0.6551 0.6706 11.89 306.645 0.110916 0.110689 
3.507 7.45 7.27 0.7108 0.6196 11.85 306.12 1.33618 0.972604 
3.511 5.33 5.17 0.8453 0.8141 11.81 305.596 2.55935 0.549895 
3.515 -0.40 -0.56 0.9189 0.7820 11.88 305.073 3.78043 -0.596263 
3.520 -1.56 -1.74 0.7991 0.8244 11.87 304.421 5.30384 -0.830133 
3.524 3.77 3.58 0.6234 0.6584 11.89 303.9 0.237034 0.234821 
3.528 7.56 7.37 0.6966 0.6949 11.84 303.38 1.45133 0.992873 
3.532 4.88 4.72 0.8263 0.7555 11.82 302.861 2.66355 0.460039 
3.536 -0.76 -0.92 0.7799 0.9094 11.88 302.342 3.8737 -0.668438 
3.540 -2.07 -2.26 0.6980 0.8387 11.86 301.825 5.08178 -0.932549 
3.544 2.62 2.43 0.6611 0.6657 11.88 301.308 0.00459784 0.00459782 
3.549 7.57 7.41 0.6669 0.6916 11.84 300.664 1.50921 0.998104 
3.553 4.67 4.50 0.7443 0.7817 11.83 300.149 2.71057 0.417796 
3.557 -0.89 -1.06 0.9141 0.9198 11.88 299.636 3.90989 -0.69491 
3.561 -2.02 -2.21 0.7707 0.8112 11.86 299.123 5.10715 -0.923089 
3.565 2.69 2.50 0.5825 0.7492 11.88 298.611 0.0191748 0.0191736 
3.570 7.58 7.41 0.7194 0.7287 11.84 297.972 1.51031 0.998171 
3.574 4.72 4.55 0.8196 0.8532 11.83 297.462 2.70093 0.426541 
3.578 -0.81 -0.99 0.9477 0.9333 11.88 296.953 3.8895 -0.680109 
3.582 -2.09 -2.26 0.8612 0.8329 11.87 296.445 5.07605 -0.934602 
3.587 3.94 3.76 0.6638 0.6814 11.89 295.811 0.273185 0.2698 
3.591 7.54 7.39 0.7271 0.7750 11.84 295.305 1.45516 0.993322 
3.595 5.00 4.85 0.8339 0.8184 11.83 294.8 2.63512 0.485096 
3.599 -0.52 -0.70 0.9317 0.9253 11.88 294.295 3.81306 -0.622132 
3.604 -1.63 -1.78 0.7771 0.7900 11.87 293.666 5.28264 -0.841764 
3.608 3.44 3.28 0.5865 0.6105 11.89 293.163 0.172863 0.172003 
3.612 7.45 7.30 0.7000 0.7043 11.84 292.661 1.34426 0.97445 
3.616 5.51 5.36 0.8057 0.8243 11.82 292.16 2.51365 0.587478 
3.621 -1.12 -1.27 0.9000 0.8480 11.88 291.536 3.97258 -0.738598 
3.625 -1.98 -2.13 0.8482 0.8556 11.85 291.037 5.13748 -0.911003 
3.629 2.65 2.52 0.6685 0.5726 11.89 290.539 0.0171921 0.0171912 
3.634 7.54 7.41 0.7176 0.6311 11.83 289.917 1.46802 0.994723 
3.638 5.03 4.90 0.7985 0.8334 11.82 289.421 2.62645 0.49266 
3.642 -0.43 -0.55 0.9299 0.8257 11.88 288.926 3.7829 -0.59824 
3.647 -1.79 -1.92 0.7775 0.8285 11.86 288.308 5.22567 -0.871138 
3.651 3.02 2.92 0.5686 0.7657 11.89 287.814 0.0944826 0.0943421 
3.656 7.54 7.45 0.7783 0.7352 11.83 287.199 1.53171 0.999236 
3.660 4.78 4.68 0.7561 0.8059 11.82 286.707 2.67927 0.446024 
3.664 -0.61 -0.70 0.8573 0.9267 11.88 286.217 3.82488 -0.631344 
3.669 -1.74 -1.83 0.7390 0.7977 11.87 285.605 5.25412 -0.856815 
3.673 3.11 3.01 0.6322 0.6351 11.88 285.116 0.112135 0.1119 
3.678 7.54 7.45 0.7048 0.7219 11.83 284.506 1.53588 0.999391 
3.682 4.81 4.71 0.8641 0.8187 11.82 284.019 2.67269 0.451906 
3.686 -0.54 -0.64 0.7835 0.9059 11.88 283.533 3.80755 -0.617814 
3.691 -1.83 -1.89 0.7548 0.6726 11.87 282.927 5.2234 -0.872251 
3.695 2.89 2.82 0.7059 0.6761 11.89 282.443 0.0707099 0.070651 
3.700 7.51 7.45 0.7676 0.7000 11.83 281.839 1.48111 0.995981 
3.704 5.08 5.01 0.7824 0.8649 11.81 281.356 2.60726 0.509269 
3.709 -1.28 -1.37 0.8357 0.9022 11.88 280.754 4.01223 -0.764742 
3.713 -2.02 -2.11 0.7959 0.7959 11.86 280.274 5.13405 -0.912411 
3.718 3.77 3.71 0.6693 0.6579 11.89 279.675 0.250435 0.247825 
3.722 7.44 7.35 0.6294 0.7298 11.84 279.196 1.36794 0.979494 
3.727 4.40 4.31 0.9031 0.7447 11.83 278.599 2.76212 0.370427 
3.731 -0.80 -0.89 0.9099 0.8809 11.88 278.122 3.87533 -0.669648 
3.736 -1.71 -1.80 0.7760 0.8010 11.87 277.527 5.26415 -0.851602 
3.740 2.99 2.90 0.6709 0.7208 11.89 277.052 0.0898873 0.0897663 
3.745 7.52 7.43 0.6741 0.7339 11.83 276.46 1.47337 0.995258 
3.749 5.21 5.13 0.7241 0.8201 11.82 275.987 2.57803 0.534205 
3.754 -1.09 -1.18 0.8741 0.8389 11.89 275.396 3.95619 -0.727448 
3.758 -2.16 -2.25 0.7870 0.7995 11.87 274.925 5.05659 -0.941344 
3.763 3.27 3.19 0.5497 0.6253 11.88 274.337 0.146269 0.145748 
3.768 7.53 7.45 0.6652 0.7516 11.82 273.75 1.51619 0.99851 
3.772 5.08 4.99 0.7889 0.8338 11.82 273.282 2.61002 0.506887 
3.777 -1.16 -1.24 0.9269 0.8337 11.87 272.697 3.97468 -0.74001 
3.781 -2.14 -2.25 0.7917 0.7965 11.86 272.231 5.0643 -0.938716 
3.786 3.25 3.15 0.5446 0.6113 11.88 271.648 0.140521 0.140059 
3.791 7.54 7.43 0.7357 0.7879 11.82 271.067 1.49702 0.99728 
3.795 5.22 5.11 0.7720 0.8378 11.81 270.604 2.58013 0.532425 
3.800 -1.00 -1.11 0.9175 0.8170 11.88 270.025 3.93141 -0.710225 
3.805 -1.66 -1.77 0.7903 0.7818 11.85 269.447 5.2798 -0.843295 
3.809 2.92 2.81 0.5731 0.6273 11.88 268.986 0.0732519 0.0731864 
3.814 7.50 7.38 0.5876 0.6679 11.83 268.411 1.41646 0.988113 
3.819 4.43 4.32 0.8470 0.7408 11.82 267.837 2.75679 0.375378 
3.823 -0.61 -0.72 0.9302 0.9321 11.88 267.378 3.82699 -0.63298 
3.828 -1.96 -2.04 0.8019 0.7995 11.86 266.807 5.16217 -0.900544 
3.833 3.62 3.48 0.6715 0.6060 11.88 266.236 0.2113 0.209731 
3.837 7.34 7.23 0.6906 0.6362 11.84 265.78 1.2751 0.956601 
3.842 5.12 5.01 0.8668 0.7040 11.81 265.212 2.6023 0.513529 
3.847 -0.99 -1.07 0.9595 0.9035 11.88 264.645 3.92666 -0.706871 
3.852 -1.76 -1.84 0.6531 0.7558 11.85 264.079 5.24818 -0.859864 
3.856 2.64 2.56 0.6420 0.5798 11.89 263.627 0.0201818 0.0201805 
3.861 7.40 7.32 0.6716 0.6544 11.83 263.063 1.33662 0.972707 
3.866 4.88 4.83 0.8647 0.7747 11.81 262.5 2.65025 0.47181 
3.871 -1.13 -1.18 0.8675 0.8000 11.87 261.939 3.96107 -0.730787 
3.876 -1.72 -1.77 0.7436 0.7719 11.86 261.379 5.26908 -0.849008 
3.880 2.68 2.63 0.6896 0.6974 11.89 260.931 0.0302917 0.0302871 
3.885 7.38 7.33 0.7520 0.6680 11.83 260.373 1.33327 0.971924 
3.890 4.97 4.89 0.8122 0.8444 11.81 259.816 2.63347 0.486538 
3.895 -1.00 -1.10 0.9440 0.9143 11.88 259.261 3.93088 -0.709855 
3.900 -1.80 -1.91 0.6777 0.7575 11.86 258.706 5.22552 -0.87121 
3.905 3.70 3.62 0.6286 0.6437 11.89 258.153 0.23421 0.232074 
3.909 7.32 7.22 0.6535 0.6313 11.84 257.711 1.26572 0.953823 
3.914 5.31 5.24 0.7936 0.8427 11.81 257.16 2.55262 0.555508 
3.919 -0.67 -0.74 0.8733 0.7816 11.88 256.61 3.83677 -0.64052 
3.924 -2.04 -2.14 0.8592 0.7989 11.86 256.061 5.11817 -0.918794 
3.929 3.10 3.03 0.6346 0.6619 11.89 255.514 0.113649 0.113404 
3.934 7.45 7.38 0.6731 0.6884 11.83 254.967 1.38958 0.983625 
3.939 4.85 4.75 0.7983 0.8687 11.83 254.422 2.66278 0.46073 
3.944 -1.01 -1.11 0.8910 0.7765 11.88 253.878 3.93325 -0.71152 
3.949 -1.85 -1.98 0.7822 0.7755 11.86 253.335 5.20101 -0.882981 
3.954 3.46 3.36 0.6034 0.6594 11.89 252.793 0.182872 0.181854 
3.959 7.51 7.41 0.6945 0.7065 11.83 252.252 1.44521 0.992125 
3.964 4.67 4.56 0.8159 0.8404 11.83 251.713 2.70486 0.422985 
3.969 -1.11 -1.21 0.8806 0.7807 11.88 251.174 3.9618 -0.73129 
3.974 -1.83 -1.93 0.8371 0.7455 11.86 250.637 5.21606 -0.875815 
3.979 3.45 3.38 0.6188 0.7107 11.89 250.101 0.184455 0.18341 
3.984 7.49 7.42 0.6830 0.7066 11.84 249.566 1.43335 0.99057 
3.989 4.76 4.69 0.7734 0.8681 11.83 249.032 2.67958 0.445747 
3.994 -1.00 -1.04 0.8829 0.9379 11.88 248.5 3.92315 -0.704385 
3.999 -1.98 -2.02 0.8477 0.7699 11.86 247.968 5.16405 -0.899722 
4.004 3.12 3.07 0.6209 0.7208 11.89 247.438 0.119117 0.118836 
4.009 7.40 7.36 0.6722 0.7049 11.83 246.909 1.35472 0.976746 
4.014 5.16 5.10 0.7058 0.8518 11.82 246.381 2.58768 0.52602 
4.019 -0.61 -0.65 0.9203 0.9625 11.88 245.854 3.818 -0.625996 
4.024 -2.21 -2.24 0.8429 0.7819 11.86 245.328 5.04569 -0.944967 
4.030 3.65 3.65 0.6764 0.5545 11.89 244.699 0.232271 0.230188 
4.035 7.47 7.46 0.5896 0.6618 11.83 244.175 1.45419 0.99321 
4.040 4.76 4.75 0.8460 0.8549 11.84 243.653 2.6735 0.451183 
4.045 -0.91 -0.89 1.2270 0.8982 11.88 243.132 3.8902 -0.680622 
4.050 -2.13 -2.11 0.6755 0.6596 11.86 242.612 5.1043 -0.92418 
4.055 2.65 2.68 0.6793 0.5819 11.89 242.093 0.0326192 0.0326134 
4.061 7.47 7.50 0.7633 0.6771 11.83 241.472 1.483 0.996149 
4.066 4.67 4.70 0.8795 0.7393 11.83 240.955 2.68881 0.437469 
4.071 -0.91 -0.91 0.9243 0.8850 11.88 240.44 3.89204 -0.681967 
4.076 -2.15 -2.14 0.7849 0.8465 11.86 239.926 5.0927 -0.92855 
4.081 2.53 2.54 0.6597 0.6787 11.89 239.413 0.00760191 0.00760184 
4.087 7.47 7.45 0.6743 0.7189 11.83 238.798 1.44193 0.991708 
4.092 4.94 4.92 0.8443 0.8943 11.83 238.288 2.63439 0.485738 
4.097 -0.65 -0.66 0.8889 0.9323 11.88 237.778 3.82429 -0.630891 
4.103 -1.78 -1.82 0.6417 0.8016 11.86 237.168 5.24883 -0.859535 
4.108 3.27 3.23 0.5994 0.5956 11.88 236.661 0.149957 0.149395 
4.113 7.39 7.32 0.5715 0.7161 11.83 236.154 1.33174 0.971562 
4.119 4.44 4.41 0.8285 0.7910 11.83 235.548 2.74655 0.384851 
4.124 -1.00 -1.04 0.9283 0.9569 11.88 235.045 3.92278 -0.70412 
4.129 -2.12 -2.15 0.7853 0.8030 11.87 234.542 5.09649 -0.927135 
4.135 3.60 3.56 0.5372 0.6177 11.88 233.94 0.21845 0.216717 
4.140 7.43 7.40 0.5765 0.5861 11.83 233.44 1.38665 0.983093 
4.145 5.28 5.27 0.8070 0.9589 11.82 232.941 2.55235 0.555731 
4.151 -1.10 -1.11 0.9559 0.8014 11.88 232.343 3.9479 -0.721737 
4.156 -2.12 -2.10 0.8218 0.8033 11.86 231.846 5.10812 -0.922713 
4.162 3.56 3.56 0.5869 0.6681 11.89 231.251 0.213932 0.212304 
4.167 7.40 7.40 0.6768 0.5835 11.83 230.756 1.3687 0.979649 
4.172 5.42 5.39 0.8441 0.8324 11.81 230.263 2.521 0.581514 
4.178 -0.93 -0.95 0.9811 0.8892 11.88 229.672 3.90051 -0.688139 
4.183 -2.21 -2.24 0.7661 0.7952 11.88 229.181 5.0474 -0.944407 
4.189 3.18 3.18 0.6044 0.6302 11.89 228.593 0.137241 0.13681 
4.194 7.30 7.27 0.6608 0.6804 11.83 228.104 1.27874 0.957653 
4.200 4.89 4.87 0.8715 0.8164 11.82 227.519 2.64531 0.476158 
4.205 -0.46 -0.51 0.8409 0.9096 11.88 227.032 3.78144 -0.597077 
4.211 -2.02 -2.07 0.7621 0.7524 11.87 226.449 5.1416 -0.909296 
4.217 3.61 3.53 0.5978 0.5453 11.89 225.868 0.215073 0.213419 
4.222 7.41 7.33 0.6622 0.7614 11.82 225.385 1.34297 0.974159 
4.228 4.71 4.63 0.8889 0.8815 11.82 224.807 2.69325 0.43347 
4.233 -0.58 -0.66 0.9701 0.9298 11.88 224.326 3.81585 -0.624314 
4.239 -1.97 -2.05 0.8227 0.7915 11.86 223.751 5.15979 -0.901576 
4.245 3.62 3.54 0.5804 0.6272 11.89 223.177 0.217096 0.215394 
4.250 7.41 7.30 0.6462 0.6673 11.82 222.699 1.33155 0.971516 
4.256 4.85 4.73 0.8619 0.8187 11.83 222.128 2.66574 0.458097 
4.261 -0.41 -0.50 0.9465 0.9600 11.88 221.653 3.77495 -0.591857 
4.267 -2.07 -2.18 0.7680 0.7610 11.86 221.084 5.10288 -0.924723 
4.273 3.28 3.16 0.6078 0.6412 11.88 220.517 0.14421 0.143711 
4.279 7.52 7.43 0.6879 0.5947 11.82 219.951 1.46533 0.994443 
4.284 5.28 5.19 0.8957 0.8040 11.81 219.48 2.56367 0.546284 
4.290 -0.80 -0.92 0.9609 0.7876 11.88 218.917 3.87858 -0.672062 
4.296 -1.89 -1.99 0.7399 0.8297 11.85 218.356 5.19012 -0.888041 
4.302 3.63 3.51 0.5408 0.6905 11.88 217.795 0.215105 0.21345 
4.307 7.38 7.26 0.5604 0.6925 11.82 217.329 1.30268 0.964273 
4.313 5.12 5.00 0.7543 0.8628 11.81 216.772 2.60471 0.511462 
4.319 -0.89 -1.01 1.0953 0.9533 11.88 216.216 3.90339 -0.690224 
4.325 -1.84 -2.00 0.7614 0.6465 11.85 215.661 5.19874 -0.884043 
4.331 3.61 3.45 0.5154 0.6156 11.89 215.107 0.207584 0.206096 
4.336 7.36 7.23 0.6047 0.6575 11.82 214.647 1.28174 0.958513 
4.342 5.28 5.15 0.7355 0.8048 11.81 214.097 2.5677 0.542909 
4.348 -0.69 -0.82 0.9905 0.9459 11.89 213.547 3.85035 -0.650892 
4.354 -2.00 -2.14 0.7654 0.6828 11.85 212.999 5.12972 -0.914175 
4.360 3.16 3.06 0.6050 0.5950 11.88 212.453 0.122614 0.122307 
4.366 7.49 7.36 0.7911 0.6978 11.82 211.908 1.39542 0.984661 
4.372 4.85 4.74 0.9159 0.8958 11.82 211.364 2.66496 0.458787 
4.378 -1.00 -1.10 0.8852 0.8841 11.88 210.822 3.93125 -0.71011 
4.384 -1.88 -1.99 0.7713 0.7447 11.85 210.281 5.19428 -0.886119 
4.390 3.39 3.31 0.5965 0.6179 11.89 209.741 0.170891 0.17006 
4.396 7.50 7.39 0.6518 0.6074 11.81 209.203 1.42745 0.989744 
4.402 4.78 4.67 0.7870 0.7857 11.82 208.666 2.68079 0.444667 
4.408 -1.01 -1.09 0.9539 0.9023 11.88 208.131 3.93091 -0.709874 
4.414 -1.93 -2.01 0.7428 0.8035 11.86 207.597 5.17783 -0.893626 
4.420 3.23 3.15 0.6052 0.5335 11.89 207.064 0.138354 0.137914 
4.426 7.45 7.37 0.7595 0.6739 11.82 206.533 1.37888 0.98164 
4.432 5.05 4.96 0.8590 0.8332 11.81 206.003 2.61622 0.501538 
4.438 -0.71 -0.80 0.8830 0.9462 11.88 205.474 3.85038 -0.650915 
4.444 -2.12 -2.21 0.7391 0.7913 11.85 204.947 5.08138 -0.932691 
4.450 2.67 2.59 0.6715 0.5987 11.88 204.421 0.0260355 0.0260325 
4.457 7.51 7.42 0.7029 0.6239 11.81 203.809 1.45453 0.993249 
4.463 4.79 4.70 0.8214 0.8825 11.83 203.286 2.67556 0.449348 
4.469 -0.87 -0.96 0.9591 0.9610 11.88 202.765 3.89345 -0.682995 
4.475 -2.07 -2.15 0.6724 0.7638 11.86 202.244 5.10821 -0.922679 
4.481 2.71 2.65 0.6069 0.5421 11.88 201.725 0.0366761 0.0366679 
4.488 7.49 7.43 0.7103 0.7066 11.82 201.122 1.44634 0.992265 
4.494 4.88 4.83 0.8925 0.9409 11.83 200.605 2.65126 0.47092 
4.500 -0.72 -0.81 0.9730 1.0053 11.88 200.091 3.85309 -0.652968 
4.506 -2.19 -2.24 0.8146 0.8063 11.86 199.577 5.05184 -0.942939 
4.513 3.35 3.27 0.5790 0.5661 11.89 198.98 0.163303 0.162578 
4.519 7.42 7.34 0.7053 0.7040 11.83 198.469 1.35539 0.976891 
4.525 5.35 5.27 0.7977 0.8996 11.82 197.96 2.54443 0.5623 
4.532 -1.01 -1.06 0.9885 0.9855 11.88 197.368 3.92778 -0.707664 
4.538 -2.08 -2.13 0.8222 0.6450 11.86 196.861 5.11021 -0.921907 
4.544 2.57 2.49 0.5819 0.6421 11.88 196.356 0.00642556 0.00642551 
4.551 7.45 7.37 0.7643 0.6970 11.82 195.768 1.37857 0.981581 
4.557 5.32 5.24 0.8489 0.8407 11.82 195.266 2.55142 0.556506 
4.564 -0.96 -1.03 0.9846 1.0107 11.88 194.682 3.91594 -0.699252 
4.570 -2.11 -2.21 0.7575 0.8044 11.86 194.182 5.08228 -0.932365 
4.577 3.33 3.22 0.6735 0.6844 11.88 193.601 0.156049 0.155416 
4.583 7.38 7.30 0.7530 0.6776 11.83 193.104 1.31592 0.967693 
4.590 4.83 4.75 0.9241 0.8316 11.83 192.526 2.66533 0.458459 
4.596 -0.59 -0.67 0.9434 0.9825 11.88 192.032 3.81876 -0.626588 
4.603 -1.97 -2.05 0.7355 0.8021 11.86 191.458 5.16069 -0.901186 
4.609 2.68 2.57 0.5314 0.5804 11.89 190.966 0.0245263 0.0245238 
4.616 7.44 7.33 0.6721 0.6845 11.83 190.395 1.359 0.977655 
4.623 4.74 4.63 0.8929 0.9319 11.83 189.825 2.68949 0.436862 
4.629 -0.62 -0.70 0.8948 0.9908 11.88 189.338 3.82673 -0.632779 
4.636 -1.99 -2.07 0.7319 0.7206 11.86 188.771 5.14983 -0.90584 
4.643 3.46 3.38 0.5810 0.5780 11.88 188.206 0.185777 0.184711 
4.649 7.38 7.29 0.6684 0.6591 11.83 187.723 1.31332 0.967037 
4.656 5.01 4.93 0.8335 0.8523 11.83 187.161 2.62514 0.493801 
4.663 -1.01 -1.10 1.0279 0.8026 11.88 186.601 3.93303 -0.711361 
4.669 -2.19 -2.24 0.7477 0.7660 11.86 186.122 5.05096 -0.943232 
4.676 2.88 2.80 0.6672 0.5747 11.89 185.565 0.0683986 0.0683453 
4.683 7.43 7.35 0.7457 0.6920 11.82 185.01 1.36513 0.978926 
4.690 4.87 4.78 0.9102 0.9199 11.83 184.456 2.65799 0.464974 
4.697 -1.08 -1.13 0.9295 0.9846 11.88 183.904 3.94697 -0.721093 
4.703 -2.18 -2.26 0.8712 0.7842 11.86 183.432 5.04874 -0.943964 
4.710 2.78 2.70 0.5528 0.5768 11.89 182.883 0.0473878 0.04737 
4.717 7.39 7.31 0.6905 0.6593 11.82 182.336 1.32538 0.970036 
4.724 5.12 5.04 0.8657 0.9104 11.82 181.79 2.59955 0.515889 
4.731 -0.79 -0.87 1.0021 0.9509 11.88 181.246 3.8699 -0.665609 
4.738 -2.02 -2.10 0.6375 0.7623 11.86 180.704 5.13645 -0.911424 
4.745 3.12 3.04 0.5583 0.5983 11.89 180.163 0.11603 0.11577 
4.752 7.44 7.36 0.6837 0.5991 11.80 179.624 1.37501 0.980895 
4.759 4.99 4.91 0.8661 0.9164 11.83 179.086 2.63023 0.48937 
4.766 -0.84 -0.90 0.9809 0.8822 11.88 178.55 3.88168 -0.674355 
4.773 -2.02 -2.12 0.7375 0.7527 11.86 178.016 5.1294 -0.914305 
4.780 3.00 2.90 0.5770 0.6003 11.88 177.483 0.0901872 0.090065 
4.787 7.40 7.32 0.6908 0.6782 11.81 176.952 1.33044 0.971254 
4.794 5.26 5.18 0.9113 0.8971 11.82 176.422 2.56698 0.543507 
4.801 -0.52 -0.60 0.9225 1.0179 11.88 175.894 3.79982 -0.611719 
4.808 -2.21 -2.29 0.7596 0.7450 11.86 175.368 5.02898 -0.950303 
4.816 3.25 3.20 0.5784 0.5857 11.88 174.768 0.146032 0.145514 
4.823 7.44 7.36 0.7253 0.6976 11.81 174.245 1.36731 0.979369 
4.830 5.18 5.10 0.7760 0.8877 11.82 173.723 2.58494 0.528347 
4.837 -0.52 -0.59 0.9541 0.9054 11.88 173.203 3.79892 -0.611005 
4.845 -1.91 -2.01 0.7780 0.7112 11.85 172.611 5.18188 -0.891798 
4.852 3.06 2.98 0.5596 0.5024 11.89 172.094 0.104907 0.104715 
4.859 7.37 7.29 0.6497 0.6126 11.81 171.579 1.30751 0.965539 
4.867 4.76 4.71 0.9348 0.9660 11.84 170.993 2.6775 0.447612 
4.874 -0.81 -0.86 0.9655 0.9192 11.89 170.481 3.8724 -0.667471 
4.881 -2.17 -2.22 0.6590 0.7552 11.85 169.971 5.06372 -0.938914 
4.889 3.21 3.16 0.4776 0.5743 11.88 169.389 0.137685 0.13725 
4.896 7.37 7.32 0.6733 0.6672 11.81 168.882 1.32138 0.969057 
4.904 4.80 4.75 0.9566 0.9294 11.82 168.305 2.66984 0.454449 
4.911 -0.71 -0.76 0.9164 0.9998 11.88 167.801 3.84596 -0.647549 
4.919 -1.93 -1.97 0.7137 0.7972 11.85 167.227 5.18578 -0.890027 
4.926 2.89 2.82 0.5368 0.5759 11.88 166.727 0.0711848 0.0711247 
4.934 7.47 7.39 0.6794 0.7279 11.81 166.157 1.40243 0.98586 
4.941 5.28 5.18 0.8424 0.9577 11.82 165.659 2.56354 0.546396 
4.949 -0.85 -0.93 0.9624 0.9624 11.88 165.093 3.88626 -0.677727 
4.956 -2.20 -2.27 0.6718 0.7200 11.85 164.599 5.03993 -0.946836 
4.964 2.91 2.80 0.4680 0.5488 11.88 164.036 0.0710017 0.0709421 
4.972 7.45 7.37 0.6648 0.6851 11.81 163.475 1.38076 0.981998 
4.979 5.44 5.36 0.9674 0.9254 11.82 162.985 2.52313 0.579785 
4.987 -0.63 -0.68 1.0605 1.0356 11.88 162.428 3.8245 -0.631053 
4.995 -2.08 -2.10 0.7276 0.7575 11.86 161.873 5.12143 -0.917504 
5.003 3.17 3.13 0.5275 0.5384 11.89 161.319 0.130731 0.130359 
5.010 7.28 7.23 0.6671 0.6401 11.82 160.836 1.25803 0.951487 
5.018 5.34 5.30 0.9272 0.8586 11.83 160.286 2.54225 0.564103 
5.026 -0.62 -0.67 0.9754 0.9746 11.88 159.738 3.82207 -0.629162 
5.034 -2.10 -2.17 0.8353 0.7377 11.86 159.192 5.09751 -0.926752 
5.042 2.96 2.89 0.5366 0.5648 11.88 158.647 0.0854112 0.0853074 
5.050 7.42 7.35 0.7402 0.7082 11.82 158.105 1.35215 0.976192 
5.058 5.05 4.98 0.9907 0.9329 11.83 157.564 2.61455 0.502977 
5.066 -0.80 -0.87 1.0079 1.0256 11.88 157.025 3.87264 -0.66765 
5.074 -2.04 -2.11 0.7091 0.6507 11.86 156.488 5.12643 -0.915504 
5.082 3.00 2.93 0.5121 0.5183 11.88 155.953 0.0927383 0.0926054 
5.090 7.43 7.30 0.7402 0.5802 11.81 155.42 1.33796 0.973017 
5.098 5.24 5.09 0.9587 0.8598 11.83 154.888 2.57893 0.533441 
5.106 -0.54 -0.70 1.0560 0.9935 11.88 154.359 3.81565 -0.624163 
5.114 -2.14 -2.30 0.7306 0.7955 11.86 153.831 5.04815 -0.944161 
5.123 3.31 3.15 0.5259 0.4541 11.88 153.239 0.146478 0.145955 
5.131 7.48 7.32 0.5839 0.6897 11.81 152.715 1.37003 0.979914 
5.139 5.21 5.04 0.9324 0.7960 11.83 152.193 2.5894 0.524553 
5.147 -0.49 -0.66 0.9957 0.9469 11.87 151.672 3.8046 -0.615492 
5.156 -1.91 -2.08 0.6500 0.7437 11.86 151.089 5.16674 -0.898548 
5.164 3.04 2.86 0.4511 0.5299 11.88 150.572 0.089936 0.0898148 
5.172 7.38 7.23 0.6502 0.6400 11.82 150.057 1.2922 0.961441 
5.181 4.98 4.83 0.9303 0.9280 11.84 149.48 2.63983 0.480976 
5.189 -0.63 -0.75 1.0088 0.9417 11.88 148.969 3.83337 -0.637903 
5.198 -1.92 -2.04 0.7866 0.7424 11.86 148.396 5.17122 -0.896571 
5.206 2.91 2.81 0.5531 0.4797 11.89 147.889 0.0729186 0.072854 
5.215 7.48 7.38 0.6811 0.6929 11.81 147.32 1.40107 0.985631 
5.223 5.21 5.14 0.9257 0.9539 11.83 146.816 2.57736 0.534769 
5.232 -0.89 -0.96 1.0034 0.9673 11.88 146.251 3.89588 -0.684767 
5.240 -2.16 -2.23 0.7091 0.7599 11.86 145.751 5.06363 -0.938945 
5.249 2.97 2.92 0.5056 0.4370 11.88 145.19 0.0894028 0.0892838 
5.258 7.44 7.40 0.7425 0.6760 11.81 144.632 1.39332 0.984293 
5.266 5.30 5.29 0.9455 0.8709 11.82 144.137 2.54815 0.559217 
5.275 -0.72 -0.73 1.1017 0.9545 11.88 143.583 3.84261 -0.644998 
5.284 -2.05 -2.08 0.6207 0.7494 11.84 143.031 5.1321 -0.913208 
5.293 3.18 3.15 0.4955 0.4682 11.88 142.48 0.133436 0.13304 
5.301 7.29 7.26 0.5618 0.6585 11.81 141.993 1.27109 0.955422 
5.310 5.33 5.28 0.9668 0.9505 11.82 141.447 2.54629 0.560757 
5.319 -0.60 -0.65 1.0043 1.0536 11.88 140.903 3.81659 -0.624899 
5.328 -2.15 -2.17 0.7908 0.7037 11.86 140.361 5.08201 -0.932464 
5.337 2.79 2.80 0.4869 0.5070 11.88 139.821 0.0593731 0.0593382 
5.346 7.35 7.33 0.6669 0.6971 11.80 139.283 1.31507 0.967481 
5.355 5.23 5.21 0.8973 0.9514 11.82 138.748 2.56594 0.54438 
5.364 -0.58 -0.63 0.9973 0.9857 11.88 138.214 3.812 -0.621306 
5.373 -2.19 -2.23 0.8178 0.6457 11.85 137.682 5.05327 -0.942461 
5.382 2.55 2.51 0.4670 0.5106 11.87 137.153 0.00657337 0.00657333 
5.392 7.45 7.36 0.5551 0.6284 11.80 136.567 1.37488 0.980869 
5.401 5.12 5.02 0.9835 1.0128 11.83 136.041 2.60135 0.514346 
5.410 -0.60 -0.70 1.0529 1.0691 11.88 135.518 3.8231 -0.629966 
5.419 -2.17 -2.30 0.7693 0.7649 11.85 134.997 5.04016 -0.946763 
5.429 3.08 2.95 0.4068 0.4855 11.88 134.42 0.103765 0.103579 
5.438 7.40 7.27 0.5834 0.6683 11.82 133.903 1.31096 0.966432 
5.447 5.50 5.37 0.9699 0.8932 11.82 133.388 2.51351 0.587595 
5.457 -0.67 -0.80 1.0113 1.0216 11.88 132.818 3.84425 -0.646249 
5.466 -2.19 -2.29 0.7494 0.7390 11.85 132.307 5.03706 -0.947756 
5.476 2.92 2.81 0.4694 0.4896 11.88 131.742 0.0738327 0.0737656 
5.485 7.32 7.19 0.6487 0.6668 11.81 131.235 1.25697 0.95116 
5.495 5.30 5.14 0.9545 1.0283 11.83 130.674 2.56624 0.544133 
5.505 -0.77 -0.89 1.0544 1.0038 11.88 130.116 3.86991 -0.665613 
5.514 -2.17 -2.31 0.7512 0.7470 11.86 129.615 5.03845 -0.947312 
5.524 2.81 2.67 0.4244 0.4181 11.88 129.062 0.0483691 0.0483502 
5.534 7.42 7.30 0.7220 0.6677 11.82 128.51 1.33595 0.97255 
5.544 5.04 4.95 0.9888 0.9989 11.84 127.961 2.61803 0.499969 
5.554 -0.86 -0.98 1.0845 1.0065 11.88 127.414 3.89463 -0.683859 
5.563 -2.19 -2.28 0.7272 0.6490 11.86 126.924 5.03891 -0.947165 
5.573 2.67 2.55 0.4595 0.5333 11.88 126.382 0.021979 0.0219773 
5.583 7.34 7.25 0.6852 0.6714 11.82 125.842 1.28283 0.958822 
5.593 5.38 5.29 1.0256 0.9294 11.83 125.304 2.53829 0.567369 
5.603 -0.48 -0.55 1.0747 1.0258 11.88 124.769 3.78838 -0.602626 
5.613 -2.20 -2.29 0.7302 0.6566 11.86 124.236 5.03313 -0.949001 
5.624 3.11 3.02 0.4513 0.4855 11.88 123.652 0.113034 0.112794 
5.634 7.42 7.33 0.6883 0.6704 11.81 123.123 1.34664 0.974983 
5.644 5.23 5.14 0.9820 1.0073 11.83 122.597 2.57498 0.536774 
5.654 -0.49 -0.61 1.0670 1.1813 11.88 122.074 3.79807 -0.610334 
5.665 -2.00 -2.12 0.7048 0.7873 11.86 121.5 5.13744 -0.911018 
5.675 2.89 2.77 0.4370 0.4587 11.88 120.981 0.0663964 0.0663476 
5.685 7.34 7.22 0.6975 0.6632 11.81 120.464 1.27336 0.956091 
5.696 5.16 5.04 0.9896 1.0342 11.84 119.898 2.59506 0.519727 
5.706 -0.46 -0.59 1.0667 1.0519 11.88 119.385 3.79122 -0.604889 
5.717 -2.08 -2.17 0.6825 0.5828 11.86 118.824 5.10109 -0.925402 
5.727 2.58 2.45 0.3762 0.4430 11.88 118.317 0.00335425 0.00335424 
5.738 7.37 7.27 0.6631 0.6620 11.79 117.761 1.3015 0.963958 
5.749 5.16 5.05 1.0615 1.0822 11.83 117.207 2.59354 0.521023 
5.760 -0.83 -0.90 1.0079 0.9676 11.88 116.657 3.87952 -0.672754 
5.770 -2.18 -2.28 0.7891 0.7641 11.86 116.158 5.04334 -0.945734 
5.781 2.71 2.64 0.3796 0.4156 11.88 115.612 0.0346147 0.0346078 
5.792 7.34 7.30 0.6845 0.7205 11.80 115.069 1.30309 0.964379 
5.803 5.26 5.19 1.0879 1.0731 11.83 114.528 2.5656 0.544668 
5.814 -0.63 -0.67 1.0487 1.0092 11.88 113.99 3.82218 -0.629248 
5.825 -2.16 -2.20 0.6940 0.6660 11.86 113.454 5.07285 -0.935734 
5.836 2.72 2.63 0.4689 0.4510 11.87 112.921 0.0344626 0.0344558 
5.847 7.33 7.24 0.6448 0.6708 11.79 112.391 1.27341 0.956106 
5.859 5.04 4.95 1.0656 1.0873 11.84 111.815 2.61835 0.499692 
5.870 -0.69 -0.78 1.0372 1.1071 11.88 111.289 3.84515 -0.646938 
5.881 -2.16 -2.22 0.5900 0.7040 11.84 110.766 5.06619 -0.938061 
5.893 3.06 3.02 0.4020 0.4783 11.87 110.198 0.10851 0.108297 
5.904 7.36 7.33 0.7515 0.6842 11.80 109.681 1.31758 0.968113 
5.915 5.42 5.39 1.0565 1.1066 11.83 109.165 2.52098 0.581537 
5.927 -0.67 -0.66 1.0728 1.0350 11.88 108.606 3.82732 -0.633235 
5.939 -2.08 -2.07 0.6035 0.6766 11.86 108.049 5.12697 -0.915287 
5.950 2.67 2.62 0.3423 0.4238 11.88 107.541 0.0292708 0.0292666 
5.962 7.36 7.32 0.5963 0.6463 11.80 106.99 1.31618 0.96776 
5.974 5.11 5.07 1.1092 1.1322 11.84 106.442 2.5965 0.518501 
5.986 -0.80 -0.86 1.0506 1.0831 11.88 105.896 3.87025 -0.665867 
5.997 -2.24 -2.25 0.6626 0.7199 11.85 105.399 5.03212 -0.94932 
6.009 2.56 2.54 0.3877 0.3977 11.88 104.858 0.0102026 0.0102024 
6.021 7.27 7.26 0.6086 0.7483 11.81 104.321 1.26501 0.95361 
6.033 5.47 5.41 1.1122 1.0709 11.83 103.786 2.51338 0.587699 
6.046 -0.75 -0.82 1.1341 1.1068 11.88 103.21 3.85857 -0.657107 
6.058 -2.10 -2.19 0.6307 0.6555 11.86 102.681 5.09365 -0.928197 
6.070 2.74 2.65 0.3841 0.4117 11.88 102.155 0.0392153 0.0392052 
6.082 7.31 7.22 0.5745 0.6356 11.80 101.631 1.26167 0.952599 
6.095 5.20 5.13 1.0886 1.0195 11.85 101.067 2.57892 0.533446 
6.107 -0.48 -0.55 1.1271 1.0409 11.88 100.549 3.78836 -0.60261 
6.120 -2.11 -2.18 0.6328 0.6655 11.86 99.991 5.09159 -0.928961 
6.132 2.57 2.48 0.3300 0.3827 11.88 99.4785 0.0049631 0.00496308 
6.145 7.36 7.26 0.6997 0.6966 11.80 98.9263 1.29432 0.962022 
6.158 5.21 5.14 1.1455 1.1091 11.84 98.3772 2.57651 0.535486 
6.171 -0.72 -0.80 1.1134 1.0538 11.88 97.831 3.85159 -0.65183 
6.184 -2.05 -2.13 0.6430 0.5882 11.86 97.288 5.11959 -0.918235 
6.196 2.55 2.45 0.3544 0.4278 11.88 96.7893 0.000612911 0.000612911 
6.210 7.42 7.34 0.6852 0.6890 11.80 96.2108 1.35132 0.976012 
6.223 5.12 5.05 1.1218 1.0687 11.84 95.6768 2.59832 0.51694 
6.236 -0.69 -0.73 1.0994 1.0986 11.88 95.1456 3.8384 -0.64177 
6.249 -2.16 -2.20 0.6371 0.6184 11.86 94.6175 5.07159 -0.936178 
6.262 2.60 2.55 0.3434 0.3254 11.87 94.0922 0.0147516 0.0147511 
6.276 7.39 7.32 0.6364 0.7761 11.80 93.5298 1.32782 0.970626 
6.289 5.37 5.29 1.1954 1.0674 11.84 93.0106 2.54007 0.565897 
6.303 -0.68 -0.73 1.1234 1.0173 11.87 92.4547 3.83805 -0.641502 
6.316 -2.22 -2.26 0.7195 0.5846 11.85 91.9415 5.03636 -0.947978 
6.330 2.72 2.65 0.3380 0.3819 11.87 91.392 0.0362331 0.0362252 
6.344 7.37 7.30 0.6928 0.6858 11.79 90.8457 1.31162 0.966601 
6.358 5.20 5.13 1.1682 1.1321 11.83 90.3027 2.57938 0.533056 
6.372 -0.66 -0.76 1.1483 1.1049 11.87 89.763 3.83957 -0.64267 
6.386 -2.09 -2.19 0.6093 0.6006 11.86 89.2265 5.09223 -0.928725 
6.400 2.82 2.72 0.3220 0.3487 11.87 88.6932 0.0542075 0.054181 
6.414 7.37 7.24 0.6518 0.5756 11.80 88.1631 1.29193 0.961369 
6.428 5.47 5.33 1.0735 1.0879 11.83 87.6361 2.52226 0.580492 
6.443 -0.62 -0.75 1.0512 1.0560 11.88 87.0751 3.83231 -0.63709 
6.457 -2.15 -2.29 0.6451 0.6107 11.85 86.5546 5.04745 -0.944389 
6.472 2.85 2.73 0.3207 0.2760 11.87 86.0005 0.0581495 0.0581167 
6.486 7.32 7.20 0.6976 0.6533 11.80 85.4864 1.2583 0.951568 
6.501 5.39 5.30 1.2452 1.0988 11.84 84.9391 2.53621 0.569076 
6.516 -0.54 -0.63 1.1853 1.0486 11.88 84.3953 3.80594 -0.616547 
6.531 -2.16 -2.22 0.6099 0.6202 11.86 83.8549 5.06755 -0.937592 
6.546 2.73 2.65 0.2775 0.3441 11.88 83.3181 0.0378839 0.0378749 
6.561 7.34 7.25 0.7250 0.7152 11.81 82.7846 1.28338 0.95898 
6.576 5.44 5.38 1.2556 1.1022 11.85 82.2546 2.52091 0.581592 
6.592 -0.66 -0.71 1.1949 1.1455 11.88 81.693 3.8322 -0.637008 
6.607 -2.17 -2.25 0.6020 0.6121 11.85 81.1699 5.05341 -0.942413 
6.623 2.86 2.78 0.2543 0.3101 11.88 80.6157 0.0642287 0.0641846 
6.638 7.30 7.25 0.6859 0.6849 11.80 80.0996 1.26933 0.954903 
6.654 5.33 5.28 1.1085 1.1560 11.85 79.5527 2.54627 0.560775 
6.670 -0.60 -0.63 1.0910 1.1089 11.88 79.0095 3.81449 -0.623256 
6.686 -2.15 -2.20 0.5994 0.5004 11.87 78.47 5.07405 -0.935309 
6.702 2.75 2.67 0.2311 0.2925 11.87 77.9343 0.0418302 0.041818 
6.718 7.35 7.24 0.7475 0.7265 11.80 77.4021 1.28425 0.959226 
6.734 5.46 5.38 1.2524 1.1521 11.84 76.8736 2.51819 0.583803 
6.751 -0.60 -0.68 1.2295 1.0977 11.88 76.3161 3.82002 -0.627566 
6.767 -2.20 -2.28 0.5550 0.5976 11.87 75.795 5.03664 -0.94789 
6.784 2.74 2.63 0.2524 0.3188 11.88 75.2453 0.0370175 0.0370091 
6.801 7.39 7.28 0.6834 0.7031 11.80 74.6995 1.31127 0.966512 
6.818 5.22 5.14 1.1942 1.1292 11.85 74.1577 2.57628 0.53568 
6.835 -0.64 -0.72 1.1068 1.0660 11.88 73.6198 3.83211 -0.63694 
6.852 -2.13 -2.21 0.5363 0.5689 11.86 73.0859 5.07884 -0.933605 
6.869 2.71 2.62 0.2469 0.2425 11.88 72.5558 0.0333382 0.0333321 
6.886 7.33 7.19 0.6705 0.7247 11.79 72.0295 1.26204 0.952714 
6.904 5.32 5.23 1.2205 1.2228 11.84 71.4765 2.55332 0.554928 
6.922 -0.66 -0.72 1.1722 1.0852 11.88 70.9277 3.83467 -0.638909 
6.939 -2.21 -2.27 0.5717 0.5179 11.85 70.4132 5.03581 -0.948154 
6.957 2.62 2.53 0.2135 0.2521 11.87 69.8726 0.014918 0.0149175 
6.975 7.33 7.22 0.7152 0.7679 11.80 69.3361 1.26752 0.954364 
6.994 5.19 5.14 1.2431 1.3418 11.85 68.7743 2.57928 0.533142 
7.012 -0.58 -0.64 1.1097 1.1050 11.87 68.2462 3.8122 -0.62146 
7.030 -2.21 -2.27 0.5078 0.5372 11.85 67.7222 5.03565 -0.948206 
7.049 2.71 2.63 0.1960 0.2212 11.87 67.1735 0.0336887 0.0336824 
7.068 7.38 7.27 0.6375 0.6413 11.81 66.6292 1.30454 0.964761 
7.087 5.28 5.17 1.3772 1.3203 11.85 66.0893 2.56508 0.5451 
7.106 -0.58 -0.66 1.1496 1.2184 11.87 65.5538 3.81542 -0.623981 
7.125 -2.18 -2.24 0.4833 0.5197 11.85 65.0226 5.05562 -0.941671 
7.144 2.56 2.47 0.1863 0.1899 11.87 64.4958 0.00259178 0.00259178 
7.164 7.34 7.26 0.7294 0.6183 11.80 63.9458 1.28672 0.959922 
7.184 5.28 5.22 1.3561 1.3437 11.85 63.4005 2.55991 0.549433 
7.204 -0.62 -0.67 1.1595 1.2320 11.88 62.8598 3.82223 -0.62929 
7.224 -2.15 -2.20 0.4488 0.5080 11.86 62.3238 5.07379 -0.935402 
7.244 2.70 2.62 0.1665 0.1623 11.87 61.7923 0.0314948 0.0314896 
7.264 7.32 7.21 0.7226 0.7359 11.79 61.2654 1.2618 0.95264 
7.285 5.38 5.26 1.2319 1.3522 11.85 60.7169 2.54233 0.564032 
7.306 -0.56 -0.65 1.2345 1.2020 11.87 60.1734 3.8114 -0.620835 
7.327 -2.13 -2.24 0.4494 0.4677 11.86 59.6347 5.06911 -0.937048 
7.348 2.72 2.60 0.1607 0.1356 11.87 59.1009 0.0323722 0.0323665 
7.369 7.33 7.21 0.6525 0.7668 11.79 58.5718 1.26766 0.954406 
7.391 5.33 5.24 1.3996 1.3826 11.85 58.0226 2.54992 0.557752 
7.413 -0.61 -0.67 1.1171 1.0626 11.88 57.4786 3.82015 -0.62767 
7.435 -2.14 -2.20 0.4389 0.4312 11.86 56.9397 5.07847 -0.933737 
7.457 2.74 2.68 0.0995 0.0948 11.87 56.4058 0.0418107 0.0417985 
7.479 7.33 7.24 0.7689 0.6641 11.80 55.8769 1.27665 0.957049 
7.502 5.28 5.25 1.4952 1.4190 11.85 55.3293 2.55523 0.553331 
7.525 -0.62 -0.67 1.1943 1.2592 11.88 54.787 3.82129 -0.628558 
7.548 -2.13 -2.21 0.3491 0.3526 11.86 54.2501 5.07494 -0.934995 
7.571 2.73 2.60 0.0688 0.0939 11.87 53.7184 0.0331175 0.0331114 
7.594 7.31 7.22 0.7849 0.6741 11.81 53.192 1.26231 0.952796 
7.618 5.39 5.33 1.4042 1.3627 11.85 52.6481 2.53211 0.572441 
7.642 -0.49 -0.54 1.2131 1.2966 11.87 52.1098 3.78893 -0.603063 
7.666 -2.19 -2.30 0.3862 0.3863 11.86 51.5771 5.03289 -0.949076 
7.691 2.71 2.60 0.0410 0.0495 11.87 51.0279 0.0319831 0.0319776 
7.716 7.35 7.29 0.7981 0.6913 11.79 50.4845 1.3006 0.96372 
7.741 5.26 5.26 1.4002 1.4825 11.86 49.947 2.55572 0.552929 
7.766 -0.55 -0.55 1.1627 1.2683 11.88 49.4151 3.79747 -0.609851 
7.792 -2.14 -2.21 0.3011 0.3147 11.86 48.868 5.07486 -0.935024 
7.817 2.61 2.46 0.0238 0.0419 11.87 48.3477 0.00659674 0.00659669 
7.844 7.39 7.25 0.7507 0.8668 11.79 47.7919 1.30419 0.96467 
7.870 5.37 5.29 1.5517 1.4506 11.85 47.2628 2.53962 0.566267 
7.897 -0.56 -0.62 1.3242 1.2206 11.86 46.7195 3.8081 -0.618243 
7.924 -2.16 -2.24 0.3429 0.3014 11.85 46.1825 5.06199 -0.939508 
7.951 2.65 2.54 0.0188 0.0190 11.86 45.6516 0.0182883 0.0182873 
7.979 7.34 7.26 0.8739 0.8767 11.80 45.1075 1.28863 0.960454 
8.007 5.34 5.28 1.5499 1.4140 11.86 44.5699 2.54383 0.562795 
8.035 -0.44 -0.55 1.2095 1.2933 11.88 44.0387 3.78407 -0.599181 
8.064 -2.14 -2.28 0.2280 0.2758 11.86 43.4953 5.05303 -0.942542 
8.093 2.72 2.51 -0.0356 0.0174 11.87 42.9585 0.0231354 0.0231333 
8.122 7.33 7.19 0.8821 0.8741 11.81 42.4283 1.26096 0.952384 
8.152 5.41 5.36 1.6075 1.6047 11.86 41.8868 2.5254 0.577932 
8.182 -0.45 -0.46 1.3146 1.2698 11.88 41.3521 3.7737 -0.590846 
8.213 -2.19 -2.25 0.2597 0.2185 11.86 40.8068 5.04687 -0.94458 
8.244 2.67 2.53 -0.0383 -0.0233 11.87 40.2687 0.0200698 0.0200684 
8.275 7.32 7.20 0.9509 0.9485 11.80 39.7377 1.25989 0.952056 
8.307 5.43 5.37 1.6422 1.6034 11.86 39.1969 2.52255 0.580255 
8.340 -0.56 -0.61 1.2095 1.2510 11.88 38.6469 3.80668 -0.617126 
8.372 -2.19 -2.29 0.1706 0.1670 11.85 38.121 5.03468 -0.948512 
8.405 2.61 2.39 -0.0649 -0.0457 11.86 37.5861 0.000377353 0.000377353 
8.439 7.39 7.15 0.9140 0.9589 11.80 37.0428 1.26878 0.954737 
8.473 5.50 5.33 1.7018 1.5760 11.86 36.5075 2.51884 0.583273 
8.508 -0.44 -0.57 1.2127 1.1545 11.87 35.9644 3.7868 -0.601367 
8.543 -2.18 -2.30 0.1065 0.1486 11.86 35.4294 5.0359 -0.948124 
8.579 2.64 2.54 -0.0542 -0.0795 11.87 34.8874 0.0181262 0.0181252 
8.615 7.29 7.25 1.0082 1.0540 11.81 34.3538 1.26418 0.953359 
8.652 5.39 5.39 1.6146 1.5973 11.86 33.8138 2.52498 0.578275 
8.690 -0.54 -0.57 1.1857 1.1777 11.88 33.268 3.79923 -0.61125 
8.728 -2.14 -2.29 0.0928 0.0832 11.84 32.7311 5.05292 -0.942578 
8.766 2.58 2.45 -0.0881 -0.0953 11.87 32.2028 0.00318545 0.00318544 
8.806 7.33 7.25 1.0768 1.0587 11.81 31.6559 1.28005 0.958031 
8.846 5.35 5.34 1.7398 1.8168 11.87 31.1183 2.53524 0.569875 
8.887 -0.50 -0.61 0.9957 1.1511 11.88 30.5767 3.79968 -0.611608 
8.928 -2.13 -2.33 -0.0631 0.0499 11.86 30.0446 5.04212 -0.946128 
8.970 2.65 2.44 -0.0664 -0.0549 11.86 29.5091 0.00926512 0.00926499 
9.013 7.28 7.25 1.1842 1.1039 11.81 28.9707 1.26628 0.953991 
9.057 5.34 5.41 1.8079 1.6297 11.87 28.43 2.52879 0.575166 
9.102 -0.52 -0.56 1.1263 1.1478 11.88 27.8874 3.79562 -0.608385 
9.147 -2.16 -2.32 -0.1207 -0.1303 11.87 27.3552 5.03827 -0.947369 
9.193 2.56 2.44 -0.0521 -0.0890 11.87 26.8217 0.000845607 0.000845607 
9.241 7.26 7.31 1.2749 1.2883 11.82 26.276 1.27487 0.956533 
9.289 5.36 5.44 1.8666 1.9745 11.87 25.7414 2.52298 0.579907 
9.338 -0.42 -0.46 1.1032 1.2335 11.89 25.207 3.7709 -0.588585 
9.389 -2.06 -2.40 -0.2642 -0.1237 11.86 24.6624 5.04225 -0.946089 
9.440 2.70 2.33 -0.0588 -0.1048 11.86 24.1297 0.0029456 0.00294559 
9.493 7.35 7.20 1.3392 1.3061 11.83 23.5882 1.26715 0.954251 
9.547 5.37 5.40 1.9966 1.9306 11.88 23.0491 2.52603 0.57742 
9.602 -0.43 -0.51 1.0592 1.1178 11.88 22.5126 3.77865 -0.594829 
9.659 -2.11 -2.34 -0.3641 -0.3099 11.87 21.9697 5.04606 -0.944847 
9.717 2.66 2.55 0.1436 -0.0628 11.87 21.4308 0.0211565 0.0211549 
9.776 7.25 7.30 1.4769 1.4179 11.82 20.8962 1.26947 0.954944 
9.837 5.36 5.40 2.0279 2.0019 11.87 20.3574 2.52736 0.576329 
9.899 -0.40 -0.50 0.9981 0.9911 11.87 19.8241 3.77265 -0.589999 
9.964 -2.08 -2.37 -0.3920 -0.4153 11.87 19.2799 5.04318 -0.945787 
10.030 2.64 2.51 -0.0351 -0.0515 11.87 18.7427 0.014383 0.0143825 
10.098 7.20 7.35 2.0255 1.5090 11.84 18.2048 1.27024 0.955172 
10.168 5.38 5.39 2.0584 2.1116 11.87 17.6672 2.5254 0.577936 
10.241 -0.33 -0.61 0.9338 0.9572 11.87 17.1308 3.77776 -0.594115 
10.316 -2.08 -2.38 -0.4085 -0.5196 11.87 16.5894 5.04189 -0.946204 
10.393 2.56 2.59 0.1056 0.1123 11.86 16.0513 0.0149924 0.0149919 
10.472 7.19 7.34 1.5707 1.5569 11.84 15.5174 1.26157 0.95257 
10.555 5.44 5.33 1.9383 2.2248 11.88 14.9756 2.52663 0.576927 
10.640 -0.31 -0.62 0.7925 0.7956 11.88 14.4404 3.7764 -0.593026 
10.729 -2.20 -2.27 -0.4601 -0.5609 11.87 13.9004 5.03714 -0.947729 
10.821 2.52 2.56 0.1362 0.1484 11.87 13.3634 0.00766199 0.00766192 
10.917 7.23 7.30 1.6618 1.6164 11.85 12.8252 1.26427 0.953388 
11.017 5.50 5.33 2.2326 2.2586 11.88 12.2876 2.51945 0.582774 
11.122 -0.33 -0.64 0.7364 0.5206 11.88 11.7474 3.78081 -0.596568 
11.231 -2.20 -2.30 -0.5341 -0.6484 11.88 11.2117 5.03159 -0.949487 
11.346 2.50 2.56 0.2518 0.2192 11.88 10.673 0.00624579 0.00624575 
11.467 7.28 7.25 1.8183 1.9231 11.85 10.1341 1.26452 0.953463 
11.594 5.53 5.32 2.2125 2.1490 11.89 9.59766 2.51691 0.584842 
11.729 -0.37 -0.55 0.4578 0.4028 11.88 9.05858 3.77558 -0.592366 
11.872 -2.20 -2.29 -0.7065 -0.7094 11.88 8.52053 5.03183 -0.94941 
12.024 2.46 2.56 0.2911 0.3251 11.87 7.98362 0.00225371 0.00225371 
12.187 7.31 7.20 2.0368 2.0249 11.86 7.44539 1.25894 0.951765 
12.362 5.56 5.31 2.2061 2.2445 11.89 6.90785 2.51399 0.587205 
12.552 -0.40 -0.51 0.2365 0.2205 11.88 6.36809 3.77424 -0.591282 
12.759 -2.23 -2.27 -0.7607 -0.7699 11.89 5.83043 5.02961 -0.950107 
12.985 2.44 2.58 0.3951 0.4690 11.88 5.29263 0.00208014 0.00208014 
13.236 7.35 7.17 2.1718 2.1953 11.87 4.75329 1.26136 0.952506 
13.516 5.56 5.30 2.0284 1.9847 11.88 4.21622 2.51532 0.586127 
13.835 -0.43 -0.47 0.0522 0.0566 11.88 3.6779 3.77221 -0.589644 
14.204 -2.25 -2.26 -0.7602 -0.6637 11.88 3.14035 5.0273 -0.950823 
14.643 2.50 2.51 0.6074 0.6564 11.88 2.60219 0.000639613 0.000639613 
15.185 7.36 7.15 2.3725 2.3848 11.87 2.0641 1.25699 0.951165 
