%% logfile from robot Tania (57)
% Tania (57)
%  1    time 0.211 sec
%  2  3 Motor voltage [V] left, right: 6.05 6.02
%  4  5 Wheel velocity [m/s] left, right: 0.7978 0.7704
%  6    Battery voltage [V]: 11.87
%  7  9 Chirp frequency =785.062 rad/s, phase=0.785062 rad, value=0.706869
0.211 6.05 6.02 0.7978 0.7704 11.87 785.062 0.785062 0.706869 
0.212 7.53 7.47 0.7801 0.8174 11.86 784.726 1.56979 0.999999 
0.212 6.05 6.03 0.8381 0.8129 11.85 784.391 2.35418 0.708531 
0.213 2.53 2.50 0.8523 0.8115 11.84 784.055 3.13823 0.00335899 
0.214 -1.00 -1.03 0.7596 0.7623 11.86 783.719 3.92195 -0.703536 
0.215 -2.49 -2.51 0.8689 0.8316 11.87 783.384 4.70534 -0.999975 
0.216 -1.04 -1.09 0.7552 0.8941 11.86 783.049 5.48839 -0.713723 
0.217 2.47 2.41 0.8783 0.7254 11.87 782.714 6.2711 -0.0120845 
0.218 6.01 5.96 0.6948 0.8051 11.88 782.379 0.770294 0.696347 
0.219 7.53 7.47 0.8222 0.7066 11.87 782.044 1.55234 0.99983 
0.220 6.14 6.09 0.6677 0.8056 11.84 781.71 2.33405 0.722592 
0.221 2.66 2.60 0.8088 0.8687 11.83 781.375 3.11542 0.0261662 
0.222 -0.90 -0.95 0.8323 0.8422 11.87 781.041 3.89646 -0.685195 
0.223 -2.47 -2.52 0.8563 0.7218 11.87 780.707 4.67717 -0.99938 
0.224 -1.16 -1.19 0.8440 0.8901 11.86 780.373 5.45754 -0.734983 
0.225 2.29 2.26 0.8244 0.7160 11.86 780.039 6.23758 -0.0455868 
0.226 5.86 5.83 0.7981 0.8340 11.89 779.705 0.734102 0.669921 
0.227 7.50 7.48 0.7752 0.6849 11.86 779.371 1.51347 0.998358 
0.228 6.28 6.22 0.7094 0.8099 11.84 779.038 2.29251 0.750673 
0.229 2.88 2.82 0.8278 0.7254 11.82 778.705 3.07122 0.070318 
0.230 -0.72 -0.78 0.7294 0.8083 11.86 778.372 3.84959 -0.650312 
0.231 -2.47 -2.50 0.8581 0.7927 11.87 778.038 4.62763 -0.99641 
0.232 -1.33 -1.36 0.7909 0.8195 11.86 777.706 5.40533 -0.769369 
0.233 2.01 1.98 0.8526 0.7968 11.86 777.373 6.1827 -0.100311 
0.234 5.64 5.62 0.7948 0.7831 11.87 777.04 0.67656 0.626115 
0.235 7.48 7.45 0.7601 0.8136 11.87 776.708 1.45327 0.993101 
0.236 6.47 6.44 0.7881 0.7668 11.84 776.375 2.22964 0.790699 
0.237 3.19 3.16 0.7852 0.6752 11.83 776.043 3.00569 0.135488 
0.238 -0.47 -0.50 0.7843 0.8261 11.85 775.711 3.7814 -0.597039 
0.239 -2.42 -2.45 0.8446 0.7138 11.87 775.379 4.55678 -0.987917 
0.240 -1.56 -1.58 0.7978 0.8865 11.87 775.048 5.33183 -0.814206 
0.241 1.64 1.61 0.8587 0.7354 11.86 774.716 6.10654 -0.175727 
0.242 5.34 5.29 0.7481 0.8188 11.89 774.385 0.59774 0.562776 
0.243 7.42 7.39 0.7728 0.7123 11.88 774.053 1.37179 0.980264 
0.244 6.71 6.68 0.7977 0.8076 11.86 773.722 2.14552 0.839345 
0.245 3.63 3.58 0.8063 0.8455 11.83 773.391 2.91891 0.22085 
0.246 -0.09 -0.14 0.8476 0.8513 11.85 773.06 3.69197 -0.523006 
0.247 -2.32 -2.38 0.8584 0.7835 11.87 772.729 4.4647 -0.969481 
0.248 -1.80 -1.86 0.8559 0.8876 11.85 772.399 5.23709 -0.865471 
0.249 1.18 1.12 0.8419 0.7825 11.86 772.068 6.00916 -0.270606 
0.250 4.92 4.86 0.8009 0.8466 11.87 771.738 0.497716 0.47742 
0.251 7.30 7.25 0.7717 0.7907 11.88 771.408 1.26912 0.954841 
0.252 6.99 6.93 0.7939 0.8127 11.85 771.078 2.0402 0.891838 
0.253 4.17 4.08 0.7906 1.0127 11.82 770.748 2.81095 0.324652 
0.254 0.41 0.33 0.7817 0.8879 11.83 770.418 3.58137 -0.425735 
0.255 -2.13 -2.22 0.8601 0.8182 11.86 770.088 4.35145 -0.935567 
0.256 -2.06 -2.12 0.9185 0.8509 11.87 769.759 5.12121 -0.917589 
0.257 0.63 0.54 0.7444 0.8400 11.86 769.43 5.89064 -0.382538 
0.258 4.37 4.31 0.7595 0.8326 11.87 769.1 0.376558 0.367722 
0.259 7.08 7.02 0.8242 0.7963 11.88 768.771 1.14533 0.910846 
0.260 7.24 7.18 0.8176 0.8008 11.86 768.442 1.91377 0.941758 
0.261 4.76 4.67 0.7693 0.7965 11.84 768.114 2.68189 0.443686 
0.262 1.01 0.95 0.8273 0.8503 11.83 767.785 3.44967 -0.303227 
0.263 -1.87 -1.93 0.7354 0.7668 11.86 767.456 4.21713 -0.879844 
0.264 -2.29 -2.35 0.9029 0.8838 11.87 767.128 4.98425 -0.963272 
0.265 -0.01 -0.07 0.7101 0.7937 11.86 766.8 5.75105 -0.507371 
0.266 3.69 3.63 0.8394 0.7830 11.87 766.472 0.234341 0.232202 
0.267 6.74 6.68 0.6665 0.7883 11.89 766.144 1.00048 0.841733 
0.268 7.45 7.36 0.7923 0.7973 11.87 765.816 1.7663 0.98095 
0.269 5.39 5.33 0.7938 0.7809 11.84 765.488 2.53179 0.572706 
0.270 1.76 1.69 0.8224 0.8020 11.83 765.161 3.29695 -0.154733 
0.271 -1.43 -1.52 0.8016 0.8633 11.86 764.833 4.06178 -0.795717 
0.272 -2.42 -2.51 0.8465 0.7346 11.87 764.506 4.82629 -0.99352 
0.273 -0.65 -0.74 0.7978 0.8650 11.87 764.179 5.59047 -0.63863 
0.274 2.90 2.81 0.8428 0.7083 11.87 763.852 0.0711357 0.0710757 
0.275 6.25 6.16 0.7276 0.8140 11.89 763.525 0.834661 0.741069 
0.276 7.54 7.45 0.8248 0.6936 11.88 763.199 1.59786 0.999634 
0.277 6.05 5.99 0.6967 0.7665 11.84 762.872 2.36073 0.703891 
0.279 -0.84 -0.93 0.7253 0.8616 11.86 762.219 3.8855 -0.677166 
0.280 -2.43 -2.55 0.9018 0.8502 11.87 761.893 4.64739 -0.997888 
0.281 -1.27 -1.40 0.7137 0.8335 11.86 761.567 5.40896 -0.767048 
0.282 2.00 1.88 0.8096 0.8514 11.88 761.242 6.1702 -0.112746 
0.283 5.58 5.46 0.8416 0.7664 11.87 760.916 0.647929 0.603537 
0.284 7.48 7.39 0.8260 0.6916 11.88 760.59 1.40852 0.986862 
0.285 6.68 6.58 0.6989 0.7657 11.85 760.265 2.16878 0.82647 
0.286 3.60 3.51 0.8289 0.8115 11.84 759.94 2.92872 0.211265 
0.287 -0.05 -0.15 0.7205 0.7352 11.85 759.614 3.68834 -0.51991 
0.288 -2.28 -2.37 0.8951 0.7661 11.87 759.289 4.44763 -0.965155 
0.289 -1.84 -1.96 0.7271 0.8340 11.87 758.965 5.20659 -0.880347 
0.290 1.00 0.88 0.8703 0.7263 11.87 758.64 5.96523 -0.312623 
0.291 4.69 4.57 0.6932 0.8029 11.87 758.315 0.440362 0.426267 
0.292 7.22 7.09 0.8014 0.8284 11.88 757.991 1.19835 0.931441 
0.293 7.20 7.07 0.8006 0.7562 11.86 757.666 1.95602 0.926715 
0.294 4.62 4.53 0.8000 0.7828 11.83 757.342 2.71336 0.415263 
0.295 0.93 0.84 0.7782 0.8019 11.84 757.018 3.47038 -0.322895 
0.296 -1.87 -1.97 0.8316 0.8165 11.86 756.694 4.22707 -0.884528 
0.297 -2.25 -2.38 0.8269 0.8591 11.87 756.371 4.98344 -0.963489 
0.298 -0.04 -0.14 0.8495 0.7151 11.87 756.047 5.73949 -0.517301 
0.299 3.60 3.50 0.7948 0.7985 11.87 755.724 0.21203 0.210445 
0.300 6.65 6.58 0.7725 0.7551 11.89 755.4 0.96743 0.82343 
0.301 7.49 7.39 0.6843 0.7515 11.87 755.077 1.72251 0.988514 
0.302 5.63 5.53 0.7995 0.7824 11.84 754.754 2.47726 0.616533 
0.303 2.10 2.00 0.6974 0.7914 11.83 754.431 3.23169 -0.0899771 
0.304 -1.20 -1.27 0.8561 0.8154 11.85 754.108 3.9858 -0.747445 
0.305 -2.46 -2.54 0.7887 0.8226 11.87 753.786 4.73959 -0.99963 
0.307 2.35 2.28 0.8603 0.8304 11.88 753.141 6.24619 -0.0369878 
0.308 5.82 5.74 0.7821 0.7931 11.88 752.818 0.715822 0.656238 
0.309 7.51 7.43 0.7807 0.7496 11.88 752.496 1.46832 0.994754 
0.310 6.52 6.44 0.7663 0.7783 11.85 752.174 2.22049 0.796267 
0.311 3.38 3.30 0.7452 0.7848 11.82 751.853 2.97235 0.16844 
0.312 -0.21 -0.29 0.8408 0.8569 11.83 751.531 3.72388 -0.549933 
0.313 -2.32 -2.40 0.7912 0.7792 11.87 751.209 4.47509 -0.971975 
0.314 -1.82 -1.89 0.8647 0.8442 11.87 750.888 5.22597 -0.870989 
0.315 1.03 0.95 0.7758 0.7725 11.85 750.567 5.97654 -0.301862 
0.316 4.68 4.61 0.7875 0.8017 11.88 750.245 0.4436 0.429194 
0.317 7.19 7.11 0.7825 0.7551 11.89 749.924 1.19352 0.929673 
0.318 7.20 7.12 0.7576 0.7695 11.86 749.604 1.94313 0.931481 
0.319 4.71 4.63 0.7998 0.7769 11.83 749.283 2.69241 0.434228 
0.320 1.06 0.98 0.8096 0.8446 11.83 748.962 3.44137 -0.295311 
0.321 -1.79 -1.87 0.8318 0.7701 11.86 748.642 4.19002 -0.866638 
0.322 -2.33 -2.41 0.8596 0.8556 11.87 748.322 4.93834 -0.974582 
0.323 -0.27 -0.35 0.8183 0.7647 11.87 748.001 5.68634 -0.562037 
0.324 3.29 3.21 0.7913 0.8060 11.87 747.681 0.150835 0.150263 
0.325 6.45 6.37 0.7790 0.7561 11.89 747.361 0.898196 0.782204 
0.326 7.53 7.45 0.7483 0.7726 11.87 747.042 1.64524 0.997231 
0.327 5.93 5.88 0.7834 0.7097 11.84 746.722 2.39196 0.68137 
0.329 -0.85 -0.91 0.7637 0.7819 11.85 746.083 3.88445 -0.676392 
0.330 -2.44 -2.52 0.8272 0.8327 11.87 745.764 4.63021 -0.996625 
0.331 -1.40 -1.48 0.8687 0.8380 11.87 745.445 5.37565 -0.787986 
0.332 1.73 1.65 0.7984 0.8010 11.86 745.126 6.12078 -0.161691 
0.333 5.28 5.22 0.7895 0.6522 11.88 744.807 0.582403 0.550032 
0.334 7.38 7.33 0.7492 0.8055 11.88 744.489 1.32689 0.970402 
0.335 6.91 6.86 0.7748 0.6371 11.85 744.17 2.07106 0.877455 
0.336 4.13 4.08 0.7782 0.8421 11.83 743.852 2.81491 0.3209 
0.337 0.50 0.45 0.7568 0.7104 11.83 743.533 3.55845 -0.404886 
0.338 -2.06 -2.11 0.8422 0.8153 11.86 743.215 4.30166 -0.916831 
0.339 -2.20 -2.25 0.7832 0.7470 11.87 742.897 5.04456 -0.945337 
0.340 0.15 0.09 0.8178 0.8169 11.86 742.579 5.78714 -0.475953 
0.341 3.75 3.69 0.8155 0.8588 11.88 742.262 0.246215 0.243734 
0.342 6.70 6.65 0.7637 0.7686 11.88 741.944 0.988159 0.835014 
0.343 7.46 7.41 0.7754 0.6403 11.87 741.627 1.72979 0.987388 
0.344 5.63 5.58 0.7725 0.8406 11.84 741.309 2.47109 0.621376 
0.345 2.17 2.12 0.7936 0.6967 11.83 740.992 3.21209 -0.0704357 
0.346 -1.10 -1.15 0.8312 0.8416 11.85 740.675 3.95276 -0.725093 
0.348 -1.23 -1.28 0.8521 0.8333 11.86 740.041 5.43316 -0.751296 
0.349 1.98 1.92 0.7727 0.7317 11.87 739.725 6.17289 -0.110076 
0.350 5.47 5.41 0.7768 0.8036 11.88 739.408 0.629109 0.588425 
0.351 7.42 7.37 0.7779 0.7191 11.88 739.092 1.3682 0.979548 
0.352 6.83 6.77 0.7640 0.7387 11.86 738.776 2.10698 0.859666 
0.353 3.99 3.93 0.8024 0.7562 11.83 738.46 2.84544 0.291846 
0.354 0.39 0.33 0.8139 0.7946 11.85 738.144 3.58358 -0.427737 
0.355 -2.09 -2.15 0.8620 0.8492 11.87 737.828 4.32141 -0.924536 
0.356 -2.17 -2.23 0.8568 0.8353 11.87 737.512 5.05892 -0.940557 
0.357 0.19 0.13 0.7908 0.6941 11.86 737.197 5.79612 -0.468038 
0.358 3.76 3.71 0.7935 0.8211 11.88 736.881 0.249812 0.247222 
0.359 6.70 6.64 0.7899 0.6547 11.89 736.566 0.986378 0.834033 
0.360 7.47 7.41 0.7561 0.8380 11.88 736.251 1.72263 0.988496 
0.361 5.68 5.63 0.7904 0.6786 11.84 735.936 2.45856 0.631145 
0.362 2.27 2.21 0.7943 0.8180 11.83 735.621 3.19419 -0.0525688 
0.363 -1.01 -1.07 0.7618 0.7411 11.85 735.306 3.92949 -0.708873 
0.365 -1.34 -1.40 0.8535 0.9007 11.86 734.677 5.39916 -0.773297 
0.366 1.78 1.73 0.8344 0.8385 11.86 734.363 6.13352 -0.149104 
0.367 5.29 5.23 0.7908 0.6660 11.88 734.049 0.584387 0.551688 
0.368 7.37 7.31 0.7571 0.8436 11.88 733.734 1.31812 0.968247 
0.369 6.96 6.90 0.7790 0.6615 11.85 733.421 2.05154 0.886651 
0.370 4.28 4.22 0.7730 0.8308 11.83 733.107 2.78465 0.349413 
0.371 0.69 0.64 0.7800 0.7072 11.84 732.793 3.51744 -0.367062 
0.372 -1.95 -2.00 0.8374 0.8270 11.86 732.48 4.24992 -0.894954 
0.373 -2.29 -2.35 0.8032 0.7671 11.87 732.166 4.98209 -0.963851 
0.374 -0.17 -0.22 0.8590 0.8332 11.87 731.853 5.71394 -0.538996 
0.375 3.34 3.28 0.7689 0.7567 11.87 731.54 0.162295 0.161583 
0.376 6.42 6.37 0.7711 0.7437 11.89 731.227 0.893521 0.779283 
0.377 7.52 7.46 0.7641 0.7227 11.87 730.914 1.62444 0.998562 
0.379 2.81 2.75 0.8052 0.8163 11.83 730.289 3.08533 0.0562377 
0.380 -0.59 -0.65 0.8218 0.8145 11.85 729.976 3.8153 -0.623889 
0.381 -2.40 -2.46 0.8013 0.7143 11.87 729.664 4.54497 -0.986017 
0.382 -1.70 -1.76 0.8420 0.8605 11.87 729.352 5.27432 -0.846229 
0.383 1.15 1.09 0.7806 0.6932 11.87 729.04 6.00336 -0.276191 
0.384 4.70 4.64 0.7851 0.8699 11.88 728.728 0.448899 0.433974 
0.385 7.15 7.09 0.7699 0.6658 11.88 728.416 1.17731 0.92358 
0.386 7.25 7.19 0.7458 0.8013 11.86 728.104 1.90542 0.944534 
0.387 4.96 4.90 0.7843 0.7013 11.83 727.793 2.63321 0.486763 
0.388 1.44 1.38 0.8022 0.7994 11.83 727.481 3.36069 -0.217352 
0.389 -1.53 -1.59 0.8419 0.8929 11.85 727.17 4.08786 -0.811241 
0.390 -2.44 -2.50 0.8485 0.8651 11.87 726.859 4.81472 -0.994769 
0.391 -0.85 -0.91 0.8398 0.7118 11.86 726.548 5.54127 -0.675701 
0.393 5.79 5.73 0.7862 0.6733 11.88 725.926 0.710249 0.652022 
0.394 7.48 7.42 0.7463 0.8178 11.87 725.616 1.43586 0.99091 
0.395 6.68 6.62 0.7761 0.6719 11.85 725.305 2.16117 0.830733 
0.396 3.79 3.73 0.7814 0.8239 11.83 724.995 2.88616 0.25266 
0.397 0.27 0.21 0.7742 0.7556 11.84 724.685 3.61085 -0.452223 
0.398 -2.12 -2.18 0.8516 0.8386 11.87 724.375 4.33522 -0.929713 
0.399 -2.17 -2.23 0.7941 0.7994 11.87 724.065 5.05929 -0.940431 
0.400 0.13 0.07 0.8610 0.8130 11.86 723.755 5.78304 -0.47955 
0.401 3.64 3.58 0.7430 0.7659 11.87 723.445 0.223304 0.221453 
0.402 6.59 6.53 0.7649 0.7544 11.88 723.136 0.94644 0.811339 
0.403 7.51 7.45 0.7792 0.8022 11.87 722.826 1.66927 0.995156 
0.404 5.94 5.88 0.7632 0.7701 11.84 722.517 2.39178 0.681499 
0.406 -0.67 -0.73 0.8218 0.8459 11.85 721.899 3.83589 -0.639846 
0.407 -2.41 -2.47 0.7925 0.7219 11.87 721.59 4.55748 -0.988026 
0.408 -1.69 -1.75 0.8683 0.8871 11.87 721.281 5.27876 -0.843853 
0.409 1.13 1.07 0.7712 0.7177 11.86 720.973 5.99973 -0.27967 
0.410 4.65 4.59 0.7894 0.7972 11.88 720.664 0.437214 0.423417 
0.411 7.11 7.05 0.7838 0.6932 11.88 720.356 1.15757 0.91583 
0.412 7.30 7.24 0.7549 0.7978 11.86 720.048 1.87762 0.953298 
0.413 5.12 5.06 0.7980 0.8440 11.84 719.74 2.59736 0.517764 
0.414 1.66 1.60 0.8009 0.8024 11.84 719.432 3.31679 -0.174302 
0.415 -1.37 -1.43 0.8146 0.7003 11.86 719.124 4.03591 -0.779784 
0.416 -2.46 -2.53 0.8372 0.8775 11.87 718.816 4.75473 -0.999104 
0.418 2.09 2.00 0.8378 0.8420 11.87 718.201 6.19144 -0.0916175 
0.419 5.46 5.40 0.7772 0.6969 11.88 717.894 0.626148 0.586028 
0.420 7.40 7.34 0.7575 0.8026 11.88 717.587 1.34373 0.974332 
0.421 6.94 6.88 0.7728 0.6945 11.85 717.28 2.06101 0.88223 
0.422 4.31 4.25 0.7748 0.7918 11.83 716.973 2.77799 0.355646 
0.423 0.80 0.74 0.7539 0.7597 11.84 716.666 3.49465 -0.345772 
0.424 -1.85 -1.92 0.8504 0.8037 11.86 716.36 4.21101 -0.876922 
0.425 -2.35 -2.42 0.7880 0.8285 11.87 716.053 4.92707 -0.977045 
0.426 -0.46 -0.52 0.8793 0.8298 11.87 715.747 5.64281 -0.597494 
0.427 2.91 2.84 0.8585 0.8274 11.87 715.44 0.0750682 0.0749977 
0.428 6.08 6.02 0.6917 0.7680 11.89 715.134 0.790203 0.710496 
0.430 6.52 6.45 0.7565 0.8146 11.85 714.523 2.21955 0.796835 
0.431 3.56 3.50 0.8009 0.6676 11.84 714.217 2.93377 0.20633 
0.432 0.11 0.04 0.8467 0.8432 11.84 713.911 3.64768 -0.48476 
0.433 -2.18 -2.21 0.8788 0.7413 11.87 713.606 4.36129 -0.938994 
0.434 -2.16 -2.19 0.7254 0.8415 11.87 713.3 5.07459 -0.93512 
0.435 0.14 0.10 0.8151 0.7452 11.86 712.995 5.78758 -0.475561 
0.436 3.60 3.56 0.8096 0.8052 11.87 712.69 0.217088 0.215387 
0.437 6.54 6.47 0.7823 0.7778 11.88 712.385 0.929474 0.801305 
0.438 7.51 7.47 0.7507 0.7542 11.87 712.081 1.64155 0.997498 
0.440 2.92 2.85 0.7922 0.8656 11.83 711.471 3.0648 0.076716 
0.441 -0.44 -0.48 0.8598 0.7228 11.85 711.167 3.77597 -0.592675 
0.442 -2.34 -2.40 0.7927 0.8709 11.87 710.863 4.48683 -0.974669 
0.443 -1.90 -1.94 0.8836 0.7386 11.87 710.558 5.19739 -0.884675 
0.444 0.70 0.63 0.7247 0.8341 11.86 710.254 5.90764 -0.366777 
0.445 4.16 4.12 0.8575 0.7164 11.88 709.951 0.334408 0.32821 
0.446 6.84 6.80 0.6642 0.8001 11.88 709.647 1.04406 0.86445 
0.447 7.43 7.40 0.8446 0.7213 11.87 709.343 1.7534 0.983375 
0.448 5.67 5.61 0.7017 0.7499 11.84 709.04 2.46244 0.628135 
0.449 2.37 2.33 0.7268 0.7757 11.83 708.736 3.17117 -0.0295776 
0.451 -2.44 -2.48 0.8789 0.8619 11.87 708.13 4.58774 -0.992241 
0.452 -1.64 -1.71 0.7449 0.8512 11.87 707.827 5.29556 -0.834718 
0.453 1.14 1.10 0.8240 0.6931 11.87 707.524 6.00309 -0.276448 
0.454 4.60 4.54 0.6827 0.8170 11.88 707.221 0.427125 0.414256 
0.455 7.05 7.01 0.8521 0.6558 11.88 706.919 1.13404 0.90613 
0.456 7.34 7.30 0.6643 0.8429 11.86 706.616 1.84066 0.963807 
0.457 5.32 5.28 0.8401 0.6837 11.84 706.314 2.54697 0.560193 
0.458 1.98 1.91 0.7680 0.8233 11.84 706.012 3.25299 -0.111163 
0.459 -1.13 -1.17 0.7568 0.7483 11.86 705.71 3.9587 -0.729167 
0.461 -1.43 -1.49 0.8572 0.8804 11.87 705.106 5.36921 -0.791938 
0.462 1.49 1.43 0.7816 0.8500 11.87 704.804 6.07401 -0.20765 
0.463 4.91 4.84 0.7965 0.7903 11.88 704.503 0.495331 0.475323 
0.464 7.19 7.13 0.7280 0.7892 11.88 704.201 1.19953 0.93187 
0.465 7.25 7.21 0.7972 0.6607 11.86 703.9 1.90343 0.945185 
0.466 5.09 5.00 0.7648 0.8162 11.84 703.599 2.60703 0.509463 
0.467 1.68 1.64 0.8392 0.7006 11.83 703.298 3.31033 -0.167937 
0.468 -1.29 -1.36 0.7558 0.8484 11.86 702.997 4.01333 -0.765446 
0.469 -2.47 -2.53 0.9011 0.8134 11.87 702.696 4.71602 -0.999993 
0.471 1.72 1.66 0.8869 0.7931 11.86 702.095 6.12051 -0.161955 
0.472 5.10 5.03 0.6612 0.7935 11.88 701.795 0.539123 0.513383 
0.473 7.26 7.20 0.7842 0.7551 11.88 701.494 1.24062 0.945984 
0.474 7.18 7.14 0.7936 0.7284 11.86 701.194 1.94181 0.93196 
0.475 4.91 4.87 0.8136 0.7973 11.83 700.894 2.64271 0.478449 
0.476 1.53 1.46 0.7403 0.7929 11.84 700.594 3.3433 -0.200342 
0.477 -1.40 -1.44 0.8484 0.7104 11.86 700.295 4.04359 -0.78457 
0.478 -2.46 -2.53 0.7417 0.8736 11.87 699.995 4.74359 -0.999513 
0.480 1.83 1.77 0.6843 0.8498 11.86 699.396 6.14268 -0.140042 
0.481 5.18 5.12 0.8381 0.7750 11.88 699.097 0.558592 0.529993 
0.482 7.29 7.22 0.6422 0.7896 11.87 698.798 1.25739 0.951289 
0.483 7.15 7.11 0.7785 0.6859 11.86 698.499 1.95589 0.926764 
0.484 4.86 4.82 0.7869 0.7953 11.84 698.2 2.65409 0.468422 
0.485 1.49 1.42 0.8205 0.8514 11.84 697.901 3.35199 -0.208849 
0.486 -1.41 -1.48 0.7977 0.8592 11.86 697.603 4.04959 -0.788275 
0.487 -2.46 -2.53 0.8426 0.7815 11.87 697.304 4.7469 -0.999405 
0.489 1.82 1.75 0.8361 0.7630 11.87 696.708 6.14061 -0.142092 
0.490 5.16 5.09 0.7180 0.8241 11.88 696.409 0.553835 0.525952 
0.491 7.28 7.21 0.8113 0.7726 11.88 696.111 1.24995 0.948968 
0.492 7.19 7.12 0.6944 0.7982 11.86 695.814 1.94576 0.930521 
0.493 4.93 4.86 0.8523 0.7971 11.84 695.516 2.64128 0.479704 
0.494 1.58 1.48 0.7440 0.8323 11.85 695.218 3.33649 -0.19367 
0.495 -1.35 -1.42 0.8877 0.8159 11.87 694.921 4.03141 -0.77696 
0.496 -2.46 -2.53 0.7174 0.8517 11.87 694.624 4.72604 -0.999907 
0.498 1.69 1.62 0.8614 0.8424 11.87 694.029 6.11439 -0.167991 
0.499 5.05 4.96 0.9586 0.8004 11.88 693.732 0.524941 0.501162 
0.500 7.24 7.14 0.6824 0.7889 11.88 693.436 1.21838 0.93854 
0.501 7.26 7.16 0.7931 0.7701 11.86 693.139 1.91152 0.942515 
0.502 5.11 5.01 0.6860 0.8169 11.83 692.842 2.60436 0.511762 
0.503 1.77 1.68 0.8557 0.7438 11.84 692.546 3.2969 -0.154687 
0.504 -1.20 -1.30 0.7265 0.8690 11.86 692.25 3.98915 -0.749668 
0.506 -1.40 -1.50 0.7240 0.8651 11.87 691.657 5.37276 -0.789762 
0.507 1.46 1.36 0.8099 0.7842 11.86 691.361 6.06413 -0.217312 
0.508 4.82 4.72 0.7997 0.8121 11.88 691.066 0.472006 0.454673 
0.509 7.14 7.04 0.7748 0.7674 11.88 690.77 1.16278 0.917908 
0.510 7.35 7.25 0.7324 0.7797 11.86 690.474 1.85325 0.960375 
0.511 5.36 5.27 0.7989 0.7870 11.83 690.179 2.54343 0.563126 
0.512 2.09 1.99 0.7889 0.8549 11.83 689.884 3.23331 -0.0915909 
0.514 -2.42 -2.52 0.7939 0.8742 11.87 689.293 4.61219 -0.994985 
0.515 -1.61 -1.71 0.8870 0.7911 11.87 688.998 5.30119 -0.831606 
0.516 1.10 1.00 0.7275 0.8432 11.86 688.704 5.9899 -0.289103 
0.517 4.47 4.37 0.8430 0.7920 11.88 688.409 0.395119 0.384918 
0.518 6.97 6.87 0.6730 0.7931 11.88 688.115 1.08323 0.883477 
0.519 7.45 7.35 0.8553 0.7674 11.86 687.82 1.77105 0.980015 
0.520 5.71 5.61 0.6666 0.8032 11.84 687.526 2.45858 0.631133 
0.521 2.53 2.43 0.7829 0.7875 11.84 687.232 3.14581 -0.00421865 
0.523 -2.36 -2.46 0.8852 0.8547 11.87 686.644 4.51939 -0.981434 
0.524 -1.85 -1.95 0.7600 0.8594 11.87 686.35 5.20574 -0.88075 
0.525 0.64 0.54 0.8496 0.7638 11.87 686.056 5.8918 -0.381471 
0.526 4.00 3.90 0.7028 0.8375 11.88 685.763 0.294376 0.290143 
0.527 6.70 6.60 0.8412 0.7780 11.88 685.469 0.979845 0.830411 
0.528 7.53 7.43 0.6565 0.7896 11.87 685.176 1.66502 0.995564 
0.530 3.08 2.98 0.6833 0.8094 11.84 684.59 3.03449 0.106894 
0.531 -0.18 -0.28 0.7990 0.7770 11.86 684.297 3.71879 -0.545678 
0.532 -2.21 -2.31 0.8519 0.8560 11.87 684.004 4.4028 -0.952457 
0.533 -2.10 -2.21 0.8481 0.8654 11.87 683.711 5.08651 -0.93083 
0.534 0.08 0.01 0.8379 0.7258 11.87 683.419 5.76993 -0.49102 
0.535 3.40 3.29 0.7851 0.8375 11.88 683.127 0.169867 0.169051 
0.536 6.32 6.21 0.7461 0.7187 11.88 682.834 0.852701 0.75306 
0.538 6.54 6.44 0.7119 0.7850 11.85 682.25 2.21749 0.798078 
0.539 3.75 3.65 0.8379 0.7954 11.84 681.958 2.89945 0.239782 
0.540 0.42 0.32 0.7363 0.8428 11.85 681.666 3.58112 -0.42551 
0.541 -1.96 -2.04 0.8655 0.8055 11.87 681.375 4.26249 -0.900492 
0.542 -2.31 -2.42 0.7987 0.8000 11.87 681.083 4.94358 -0.973395 
0.543 -0.51 -0.61 0.8634 0.7988 11.87 680.792 5.62437 -0.612182 
0.544 2.66 2.56 0.7425 0.7602 11.87 680.501 0.0216829 0.0216812 
0.546 7.45 7.37 0.7780 0.7897 11.87 679.918 1.38181 0.982195 
0.547 6.95 6.87 0.7628 0.7754 11.85 679.627 2.06144 0.882031 
0.548 4.50 4.40 0.7063 0.7894 11.83 679.337 2.74077 0.390172 
0.549 1.17 1.09 0.8205 0.7511 11.85 679.046 3.41982 -0.274652 
0.550 -1.55 -1.63 0.7947 0.8562 11.86 678.755 4.09858 -0.817458 
0.551 -2.44 -2.54 0.8777 0.8949 11.87 678.465 4.77704 -0.997911 
0.553 1.80 1.70 0.8414 0.8191 11.87 677.885 6.1331 -0.149522 
0.554 5.07 4.96 0.7982 0.7048 11.88 677.595 0.52751 0.503383 
0.555 7.22 7.12 0.7590 0.8014 11.89 677.305 1.20481 0.933773 
0.556 7.31 7.21 0.7840 0.8325 11.86 677.015 1.88183 0.952018 
0.557 5.31 5.20 0.7809 0.7869 11.84 676.725 2.55855 0.550563 
0.558 2.09 1.98 0.7970 0.7016 11.83 676.436 3.23499 -0.093262 
0.560 -2.41 -2.51 0.8533 0.7438 11.87 675.857 4.58699 -0.992148 
0.561 -1.71 -1.82 0.8665 0.8789 11.87 675.568 5.26256 -0.852434 
0.562 0.86 0.75 0.8172 0.7219 11.87 675.279 5.93784 -0.338522 
0.563 4.17 4.06 0.7874 0.8040 11.88 674.99 0.329644 0.323707 
0.564 6.77 6.66 0.7773 0.6889 11.89 674.701 1.00435 0.843811 
0.565 7.53 7.42 0.7530 0.7855 11.87 674.412 1.67876 0.994178 
0.567 3.13 3.02 0.8425 0.7829 11.83 673.835 3.02672 0.114623 
0.568 -0.10 -0.20 0.7761 0.8138 11.85 673.547 3.70026 -0.53006 
0.569 -2.16 -2.27 0.8432 0.8347 11.87 673.259 4.37352 -0.943132 
0.570 -2.18 -2.27 0.9026 0.8751 11.87 672.971 5.04649 -0.944704 
0.571 -0.13 -0.21 0.7598 0.8371 11.87 672.683 5.71918 -0.534578 
0.572 3.08 3.00 0.8181 0.6695 11.87 672.395 0.108387 0.108175 
0.574 7.51 7.42 0.7847 0.6434 11.87 671.82 1.45231 0.992989 
0.575 6.81 6.70 0.7680 0.8414 11.85 671.532 2.12385 0.850926 
0.576 4.25 4.14 0.7400 0.7026 11.83 671.245 2.79509 0.339609 
0.577 0.97 0.84 0.8252 0.9402 11.85 670.958 3.46605 -0.318794 
0.578 -1.64 -1.75 0.7855 0.7582 11.86 670.671 4.13672 -0.838828 
0.579 -2.42 -2.53 0.8685 0.8442 11.88 670.384 4.8071 -0.995518 
0.581 1.88 1.76 0.7944 0.8441 11.87 669.81 6.14701 -0.135754 
0.582 5.10 4.99 0.8078 0.6688 11.88 669.524 0.53335 0.508421 
0.583 7.22 7.11 0.7423 0.8442 11.88 669.237 1.20259 0.932973 
0.584 7.33 7.22 0.8064 0.6619 11.86 668.951 1.87154 0.955117 
0.585 5.38 5.27 0.7360 0.8304 11.84 668.665 2.5402 0.565789 
0.586 2.22 2.11 0.8441 0.7066 11.84 668.379 3.20858 -0.0669385 
0.588 -2.36 -2.50 0.9126 0.7770 11.87 667.807 4.54448 -0.985937 
0.589 -1.82 -1.96 0.7549 0.8483 11.87 667.521 5.212 -0.877768 
0.590 0.60 0.46 0.9027 0.7802 11.86 667.235 5.87924 -0.393052 
0.591 3.87 3.73 0.6877 0.7599 11.87 666.95 0.263002 0.259981 
0.592 6.58 6.44 0.8028 0.7273 11.89 666.665 0.929667 0.801421 
0.593 7.57 7.43 0.8039 0.7257 11.87 666.379 1.59605 0.999681 
0.595 3.63 3.49 0.7307 0.7867 11.83 665.809 2.92795 0.212021 
0.596 0.39 0.24 0.8419 0.7068 11.85 665.524 3.59347 -0.436659 
0.597 -1.92 -2.07 0.7534 0.8636 11.87 665.24 4.25871 -0.898843 
0.598 -2.33 -2.45 0.8915 0.7214 11.87 664.955 4.92367 -0.977763 
0.599 -0.64 -0.76 0.7932 0.8821 11.86 664.671 5.58834 -0.640267 
0.601 5.52 5.40 0.8006 0.8032 11.88 664.102 0.633643 0.592084 
0.602 7.37 7.25 0.7645 0.6851 11.88 663.818 1.29746 0.962876 
0.603 7.18 7.07 0.7946 0.8002 11.86 663.534 1.96099 0.924834 
0.604 5.03 4.91 0.7953 0.8495 11.83 663.25 2.62424 0.494577 
0.605 1.83 1.72 0.8111 0.8216 11.84 662.966 3.28721 -0.145103 
0.606 -1.06 -1.18 0.8433 0.7112 11.86 662.682 3.94989 -0.723114 
0.608 -1.67 -1.79 0.8763 0.7341 11.86 662.115 5.27441 -0.846182 
0.609 0.87 0.73 0.8226 0.8451 11.87 661.832 5.93624 -0.340027 
0.610 4.11 3.99 0.7968 0.7008 11.88 661.549 0.314603 0.309439 
0.611 6.70 6.58 0.7830 0.8034 11.88 661.266 0.975869 0.828189 
0.612 7.55 7.43 0.7577 0.6858 11.86 660.983 1.63685 0.997819 
0.614 3.47 3.35 0.8433 0.7470 11.83 660.418 2.95797 0.182593 
0.615 0.27 0.15 0.7775 0.8024 11.85 660.135 3.6181 -0.458683 
0.616 -1.97 -2.10 0.8452 0.8248 11.86 659.853 4.27796 -0.907109 
0.617 -2.33 -2.42 0.9127 0.8389 11.87 659.57 4.93753 -0.974763 
0.618 -0.62 -0.71 0.7525 0.8654 11.86 659.288 5.59682 -0.633733 
0.620 5.50 5.40 0.6894 0.6480 11.88 658.724 0.63136 0.590243 
0.621 7.35 7.26 0.8627 0.7990 11.87 658.442 1.2898 0.96078 
0.622 7.21 7.09 0.6962 0.6367 11.85 658.16 1.94796 0.929712 
0.623 5.10 5.00 0.8223 0.8465 11.83 657.879 2.60584 0.510487 
0.624 1.94 1.84 0.7227 0.7178 11.84 657.597 3.26344 -0.121545 
0.626 -2.41 -2.50 0.8727 0.7588 11.87 657.035 4.57779 -0.990955 
0.627 -1.78 -1.88 0.8855 0.8352 11.86 656.754 5.23454 -0.866747 
0.628 0.64 0.54 0.8380 0.8867 11.86 656.473 5.89102 -0.382194 
0.629 3.85 3.76 0.8268 0.7883 11.87 656.192 0.264023 0.260966 
0.630 6.53 6.43 0.7437 0.6487 11.88 655.911 0.919934 0.795561 
0.631 7.55 7.45 0.8026 0.8253 11.87 655.63 1.57556 0.999989 
0.633 3.81 3.72 0.8273 0.8406 11.83 655.07 2.88598 0.252835 
0.634 0.62 0.49 0.7524 0.9547 11.84 654.789 3.54077 -0.388663 
0.635 -1.78 -1.91 0.9066 0.9031 11.86 654.509 4.19528 -0.869253 
0.636 -2.39 -2.51 0.7663 0.7728 11.87 654.229 4.84951 -0.990613 
0.637 -0.97 -1.06 0.8789 0.8419 11.87 653.949 5.50346 -0.703084 
0.639 5.06 4.97 0.7851 0.7456 11.88 653.39 0.527334 0.503231 
0.640 7.17 7.08 0.7876 0.7137 11.88 653.11 1.18044 0.924775 
0.641 7.38 7.28 0.7682 0.7233 11.86 652.831 1.83327 0.96575 
0.642 5.61 5.49 0.7096 0.7943 11.83 652.551 2.48583 0.609767 
0.644 -0.47 -0.57 0.8991 0.7114 11.85 651.993 3.79009 -0.60399 
0.645 -2.28 -2.35 0.9202 0.8655 11.87 651.714 4.44181 -0.963615 
0.646 -2.11 -2.18 0.8046 0.7172 11.87 651.435 5.09324 -0.928348 
0.647 -0.03 -0.10 0.8614 0.8718 11.87 651.157 5.7444 -0.513096 
0.648 3.09 3.02 0.7603 0.6895 11.87 650.878 0.11209 0.111855 
0.650 7.47 7.40 0.7742 0.6779 11.88 650.321 1.41301 0.987578 
0.651 6.94 6.87 0.7627 0.8016 11.85 650.043 2.06305 0.881269 
0.652 4.61 4.54 0.7786 0.8534 11.83 649.765 2.71282 0.415757 
0.653 1.44 1.37 0.8149 0.8273 11.83 649.487 3.3623 -0.218924 
0.654 -1.28 -1.36 0.8476 0.7152 11.86 649.209 4.01151 -0.764278 
0.656 -1.60 -1.67 0.8313 0.7311 11.87 648.653 5.3091 -0.827189 
0.657 0.94 0.86 0.8499 0.8549 11.87 648.376 5.95747 -0.319983 
0.658 4.12 4.05 0.7993 0.6969 11.88 648.099 0.322387 0.316832 
0.659 6.66 6.59 0.7571 0.8007 11.89 647.821 0.970209 0.825004 
0.660 7.53 7.46 0.7738 0.6860 11.87 647.544 1.61775 0.998898 
0.662 3.67 3.60 0.7429 0.7498 11.82 646.99 2.91201 0.227572 
0.663 0.51 0.44 0.8120 0.7941 11.84 646.713 3.55872 -0.405138 
0.664 -1.83 -1.91 0.8736 0.8262 11.86 646.437 4.20516 -0.874094 
0.665 -2.42 -2.49 0.8483 0.8412 11.87 646.16 4.85132 -0.990365 
0.667 1.82 1.78 0.7253 0.7933 11.86 645.607 6.14281 -0.139915 
0.668 4.94 4.90 0.8491 0.6523 11.88 645.331 0.504955 0.483768 
0.669 7.10 7.03 0.7256 0.8052 11.88 645.055 1.15001 0.912768 
0.670 7.41 7.34 0.7771 0.6393 11.86 644.779 1.79479 0.975018 
0.671 5.76 5.69 0.7705 0.8457 11.83 644.503 2.43929 0.645976 
0.673 -0.23 -0.30 0.8123 0.8224 11.85 643.952 3.72747 -0.552931 
0.674 -2.19 -2.23 0.8803 0.7608 11.87 643.676 4.37115 -0.942339 
0.675 -2.25 -2.29 0.8472 0.8445 11.87 643.401 5.01455 -0.954697 
0.676 -0.41 -0.45 0.8544 0.9008 11.86 643.125 5.65767 -0.585513 
0.677 2.61 2.56 0.7669 0.8330 11.87 642.85 0.0173375 0.0173366 
0.679 7.34 7.30 0.7037 0.8319 11.88 642.3 1.30221 0.964148 
0.680 7.18 7.13 0.8156 0.6589 11.85 642.025 1.94424 0.931077 
0.681 5.17 5.10 0.7352 0.8285 11.82 641.751 2.58599 0.527456 
0.682 2.08 2.06 0.9319 0.7072 11.83 641.476 3.22747 -0.085767 
0.684 -2.39 -2.40 0.9224 0.7777 11.87 640.927 4.50959 -0.979507 
0.685 -2.02 -2.04 0.7260 0.8519 11.85 640.653 5.15025 -0.905662 
0.686 0.14 0.13 0.8235 0.7835 11.86 640.379 5.79063 -0.472882 
0.687 3.24 3.23 0.8562 0.7671 11.87 640.105 0.147546 0.147011 
0.688 6.05 6.03 0.8324 0.7301 11.88 639.831 0.787377 0.708504 
0.690 6.91 6.89 0.7991 0.7982 11.85 639.284 2.06622 0.879768 
0.691 4.62 4.61 0.6930 0.7769 11.83 639.01 2.70523 0.422648 
0.692 1.50 1.49 0.8642 0.7010 11.83 638.737 3.34396 -0.200993 
0.693 -1.22 -1.23 0.7348 0.8591 11.86 638.464 3.98243 -0.7452 
0.695 -1.76 -1.78 0.7324 0.8934 11.87 637.917 5.25854 -0.854532 
0.696 0.62 0.61 0.8194 0.7218 11.87 637.644 5.89618 -0.377417 
0.697 3.75 3.73 0.8113 0.7984 11.88 637.372 0.250366 0.247758 
0.698 6.38 6.37 0.7812 0.6933 11.88 637.099 0.887465 0.775474 
0.700 6.66 6.65 0.7816 0.8296 11.84 636.554 2.16084 0.830914 
0.701 4.19 4.18 0.7663 0.7880 11.83 636.281 2.79713 0.337694 
0.702 1.07 1.06 0.8432 0.6951 11.84 636.009 3.43314 -0.28743 
0.703 -1.49 -1.50 0.7851 0.8737 11.86 635.737 4.06887 -0.799991 
0.705 -1.53 -1.57 0.7415 0.8691 11.87 635.193 5.33953 -0.809708 
0.706 0.99 0.97 0.7982 0.7622 11.86 634.921 5.97445 -0.303852 
0.707 4.12 4.08 0.6892 0.7917 11.88 634.65 0.325917 0.320178 
0.708 6.60 6.59 0.8208 0.6844 11.89 634.378 0.960295 0.819361 
0.709 7.50 7.49 0.6328 0.7768 11.86 634.107 1.5944 0.999721 
0.711 3.89 3.88 0.8104 0.7679 11.82 633.564 2.8618 0.276155 
0.712 0.77 0.76 0.8388 0.7995 11.84 633.293 3.49509 -0.346186 
0.713 -1.67 -1.68 0.7568 0.8259 11.86 633.022 4.12812 -0.834114 
0.714 -2.49 -2.50 0.8590 0.8736 11.88 632.751 4.76087 -0.998825 
0.716 1.22 1.23 0.8090 0.6891 11.87 632.21 6.02556 -0.254786 
0.717 4.33 4.32 0.6634 0.8486 11.88 631.94 0.374314 0.365634 
0.718 6.73 6.72 0.8115 0.6465 11.88 631.669 1.00598 0.844688 
0.719 7.49 7.48 0.6346 0.8291 11.86 631.399 1.63738 0.997784 
0.721 3.70 3.69 0.7976 0.8125 11.82 630.859 2.89937 0.239862 
0.722 0.61 0.60 0.8322 0.7399 11.84 630.589 3.52996 -0.378676 
0.723 -1.75 -1.76 0.8203 0.8377 11.87 630.319 4.16028 -0.851419 
0.724 -2.47 -2.50 0.8535 0.8943 11.87 630.049 4.79033 -0.996964 
0.726 1.36 1.32 0.8406 0.7554 11.87 629.51 6.04962 -0.231451 
0.727 4.44 4.41 0.7202 0.8020 11.87 629.241 0.395672 0.385428 
0.728 6.78 6.77 0.8072 0.6622 11.87 628.972 1.02464 0.854529 
0.729 7.50 7.47 0.6643 0.7906 11.86 628.703 1.65335 0.996595 
0.731 3.65 3.64 0.6881 0.8260 11.83 628.165 2.90995 0.229581 
0.732 0.57 0.57 0.8708 0.7603 11.84 627.896 3.53784 -0.38596 
0.733 -1.75 -1.79 0.7240 0.8692 11.87 627.627 4.16547 -0.85413 
0.734 -2.47 -2.50 0.8365 0.8495 11.88 627.359 4.79283 -0.996767 
0.736 1.34 1.31 0.8695 0.7987 11.88 626.822 6.04674 -0.234249 
0.737 4.42 4.38 0.6927 0.7898 11.88 626.554 0.390108 0.380289 
0.738 6.77 6.73 0.8003 0.7679 11.88 626.286 1.01639 0.850215 
0.739 7.50 7.47 0.6527 0.7831 11.86 626.018 1.64241 0.997437 
0.741 3.74 3.71 0.6905 0.8406 11.82 625.482 2.89364 0.245415 
0.742 0.66 0.66 0.8487 0.7000 11.83 625.215 3.51886 -0.368381 
0.743 -1.70 -1.73 0.7275 0.8872 11.86 624.947 4.14381 -0.842665 
0.744 -2.48 -2.51 0.8332 0.8084 11.85 624.68 4.76849 -0.998427 
0.746 1.20 1.17 0.8375 0.7791 11.87 624.145 6.01704 -0.263011 
0.747 4.27 4.24 0.7536 0.8053 11.88 623.878 0.357737 0.350156 
0.748 6.67 6.64 0.7662 0.7606 11.89 623.611 0.981349 0.831248 
0.749 7.51 7.48 0.7200 0.7747 11.86 623.345 1.60469 0.999426 
0.751 3.95 3.92 0.7325 0.8466 11.82 622.811 2.85058 0.28692 
0.752 0.89 0.86 0.8426 0.7783 11.83 622.545 3.47313 -0.325495 
0.753 -1.56 -1.59 0.7574 0.8747 11.86 622.279 4.09541 -0.815628 
0.754 -2.48 -2.52 0.8991 0.8002 11.87 622.012 4.71742 -0.999987 
0.756 0.93 0.90 0.8820 0.7861 11.87 621.48 5.96064 -0.316978 
0.757 3.99 3.96 0.6547 0.8146 11.87 621.214 0.298673 0.294253 
0.758 6.49 6.46 0.7679 0.7683 11.87 620.948 0.919622 0.795372 
0.760 6.67 6.64 0.7856 0.7741 11.84 620.417 2.16072 0.830982 
0.761 4.28 4.25 0.7142 0.7909 11.82 620.152 2.78087 0.352947 
0.762 1.23 1.20 0.9531 0.9513 11.83 619.886 3.40076 -0.256276 
0.763 -1.33 -1.36 0.7395 0.8849 11.86 619.621 4.02038 -0.769966 
0.765 -1.76 -1.79 0.7192 0.8841 11.87 619.091 5.25883 -0.85438 
0.766 0.54 0.51 0.8509 0.7669 11.86 618.826 5.87765 -0.394507 
0.767 3.57 3.54 0.6697 0.8407 11.87 618.561 0.21303 0.211422 
0.768 6.21 6.18 0.7715 0.7622 11.88 618.297 0.831327 0.738826 
0.770 6.91 6.88 0.7712 0.7734 11.84 617.768 2.06713 0.879336 
0.771 4.72 4.69 0.7562 0.8161 11.82 617.503 2.68463 0.441224 
0.772 1.73 1.67 0.8048 1.1381 11.83 617.239 3.30187 -0.159591 
0.774 -2.39 -2.45 0.8783 0.7908 11.86 616.711 4.53556 -0.984406 
0.775 -2.00 -2.05 0.7812 0.7954 11.86 616.447 5.152 -0.904916 
0.776 0.08 -0.00 0.8593 0.8542 11.86 616.184 5.76819 -0.492533 
0.777 3.04 2.96 0.6885 0.7029 11.87 615.92 0.100922 0.100751 
0.779 7.38 7.33 0.6567 0.7771 11.87 615.393 1.33197 0.971617 
0.780 7.18 7.12 0.8372 0.7618 11.84 615.13 1.9471 0.930029 
0.781 5.28 5.20 0.7640 0.8017 11.82 614.867 2.56197 0.54771 
0.782 2.37 2.28 0.7348 0.7811 11.84 614.603 3.17657 -0.0349711 
0.784 -2.24 -2.29 0.8892 0.8470 11.86 614.078 4.40499 -0.953124 
0.785 -2.23 -2.31 0.7535 0.8790 11.86 613.815 5.0188 -0.953421 
0.786 -0.49 -0.57 0.8347 0.8340 11.86 613.552 5.63236 -0.605846 
0.788 5.25 5.19 0.8534 0.7711 11.88 613.027 0.575488 0.544244 
0.789 7.18 7.10 0.6633 0.7757 11.88 612.765 1.18825 0.927718 
0.790 7.41 7.33 0.7529 0.7518 11.85 612.503 1.80076 0.973675 
0.791 5.87 5.79 0.7483 0.8024 11.83 612.241 2.413 0.665822 
0.793 0.17 0.08 0.7975 0.8298 11.84 611.717 3.63669 -0.47512 
0.794 -1.94 -2.00 0.8514 0.8022 11.86 611.455 4.24815 -0.894162 
0.795 -2.40 -2.49 0.8367 0.9166 11.87 611.194 4.85934 -0.989222 
0.797 1.54 1.45 0.7545 0.6845 11.86 610.671 6.08095 -0.200864 
0.798 4.53 4.44 0.7971 0.8526 11.88 610.41 0.408169 0.39693 
0.799 6.80 6.71 0.7371 0.6849 11.89 610.148 1.01832 0.851226 
0.800 7.53 7.45 0.7579 0.7545 11.86 609.887 1.62821 0.998353 
0.802 3.99 3.91 0.7429 0.7959 11.81 609.366 2.8472 0.290162 
0.803 0.99 0.91 0.8252 0.8478 11.83 609.105 3.4563 -0.30954 
0.804 -1.43 -1.54 0.7868 0.8095 11.86 608.844 4.06515 -0.797749 
0.806 -1.67 -1.75 0.8232 0.8309 11.86 608.323 5.28205 -0.842082 
0.807 0.63 0.54 0.8590 0.7751 11.86 608.063 5.89012 -0.383025 
0.808 3.61 3.52 0.8333 0.7520 11.88 607.803 0.214734 0.213087 
0.809 6.22 6.11 0.7264 0.7992 11.88 607.543 0.822277 0.732697 
0.811 7.01 6.92 0.7440 0.7830 11.84 607.023 2.03658 0.893469 
0.812 4.93 4.85 0.7943 0.7876 11.81 606.763 2.64335 0.477886 
0.813 2.00 1.92 0.8411 0.8441 11.82 606.504 3.24985 -0.108046 
0.815 -2.29 -2.40 0.8583 0.7528 11.87 605.985 4.46208 -0.968836 
0.816 -2.14 -2.23 0.7965 0.8495 11.86 605.726 5.0678 -0.937502 
0.817 -0.32 -0.41 0.8361 0.7383 11.86 605.466 5.67327 -0.572797 
0.819 5.38 5.27 0.7638 0.8246 11.89 604.948 0.600241 0.564842 
0.820 7.22 7.11 0.7646 0.7383 11.88 604.69 1.20493 0.933815 
0.821 7.40 7.31 0.7460 0.7629 11.85 604.431 1.80936 0.971678 
0.822 5.87 5.78 0.7907 0.7718 11.82 604.172 2.41353 0.665422 
0.824 0.25 0.14 0.8027 0.8580 11.84 603.655 3.6211 -0.461345 
0.825 -1.86 -1.97 0.8560 0.7435 11.86 603.397 4.2245 -0.883325 
0.826 -2.42 -2.51 0.9052 0.8474 11.87 603.139 4.82764 -0.993366 
0.828 1.31 1.22 0.8777 0.8073 11.86 602.623 6.03314 -0.247444 
0.829 4.27 4.18 0.6487 0.7247 11.88 602.365 0.352323 0.345079 
0.830 6.64 6.52 0.7635 0.7327 11.88 602.107 0.954431 0.815985 
0.832 6.71 6.62 0.7733 0.7572 11.84 601.592 2.15787 0.832564 
0.833 4.41 4.32 0.7771 0.7749 11.82 601.335 2.75921 0.373134 
0.834 1.46 1.37 0.7803 0.8144 11.83 601.078 3.36029 -0.216953 
0.835 -1.11 -1.20 0.8410 0.8422 11.85 600.82 3.96111 -0.730813 
0.837 -1.97 -2.03 0.7210 0.7489 11.86 600.306 5.16198 -0.900627 
0.838 0.06 -0.03 0.8556 0.8618 11.86 600.05 5.76202 -0.497887 
0.839 2.94 2.85 0.6729 0.6794 11.87 599.793 0.0786325 0.0785515 
0.841 7.33 7.24 0.7364 0.7759 11.87 599.28 1.27745 0.957281 
0.842 7.31 7.22 0.7638 0.7540 11.84 599.023 1.87647 0.953644 
0.843 5.63 5.54 0.7583 0.8034 11.82 598.767 2.47524 0.618124 
0.845 0.01 -0.07 0.8152 0.8394 11.85 598.255 3.672 -0.505888 
0.846 -1.99 -2.05 0.8408 0.7746 11.87 597.999 4.27 -0.903733 
0.847 -2.41 -2.47 0.7901 0.7652 11.87 597.743 4.86775 -0.987956 
0.849 1.45 1.36 0.7034 0.6963 11.86 597.232 6.06246 -0.218933 
0.850 4.38 4.29 0.8358 0.7947 11.88 596.976 0.376255 0.36744 
0.851 6.68 6.59 0.7378 0.7649 11.88 596.721 0.972975 0.826564 
0.853 6.69 6.59 0.7553 0.7730 11.83 596.21 2.16565 0.82823 
0.854 4.40 4.31 0.8018 0.7880 11.81 595.955 2.76161 0.370909 
0.855 1.48 1.38 0.8174 0.8117 11.83 595.7 3.35731 -0.214044 
0.856 -1.09 -1.16 0.8918 0.8305 11.86 595.445 3.95275 -0.725085 
0.858 -2.01 -2.08 0.8600 0.8619 11.86 594.936 5.14288 -0.908762 
0.859 -0.06 -0.13 0.7205 0.8381 11.86 594.681 5.73756 -0.518955 
0.860 2.77 2.71 0.8529 0.7828 11.87 594.427 0.0487992 0.0487798 
0.862 7.25 7.19 0.8022 0.7420 11.88 593.918 1.23689 0.944769 
0.863 7.38 7.29 0.7351 0.7738 11.85 593.664 1.83055 0.966452 
0.864 5.83 5.74 0.7768 0.7725 11.83 593.41 2.42396 0.6576 
0.866 0.29 0.20 0.8414 0.7810 11.84 592.902 3.61002 -0.451486 
0.867 -1.82 -1.91 0.8561 0.8587 11.87 592.649 4.20267 -0.872882 
0.868 -2.45 -2.52 0.8659 0.8879 11.87 592.395 4.79507 -0.996584 
0.870 1.02 0.98 0.8987 0.7536 11.86 591.888 5.9791 -0.299424 
0.871 3.94 3.90 0.7155 0.7996 11.88 591.635 0.287546 0.2836 
0.872 6.37 6.33 0.8080 0.7478 11.88 591.382 0.878928 0.770056 
0.874 6.94 6.88 0.7719 0.7673 11.84 590.876 2.06093 0.882268 
0.875 4.88 4.82 0.7719 0.8126 11.82 590.623 2.65156 0.470658 
0.876 2.03 1.97 0.7564 0.7833 11.83 590.37 3.24193 -0.100166 
0.878 -2.27 -2.31 0.8450 0.8453 11.87 589.865 4.42191 -0.958107 
0.879 -2.26 -2.30 0.8978 0.8584 11.87 589.613 5.01152 -0.955592 
0.880 -0.63 -0.67 0.8862 0.8331 11.86 589.361 5.60088 -0.630581 
0.882 4.90 4.86 0.7984 0.7788 11.88 588.857 0.495663 0.475615 
0.883 6.94 6.90 0.6587 0.7692 11.88 588.605 1.08427 0.883961 
0.884 7.49 7.46 0.8348 0.7558 11.86 588.353 1.67262 0.99482 
0.886 3.98 3.91 0.7342 0.7299 11.82 587.849 2.84857 0.288846 
0.887 1.08 1.02 0.8043 0.8573 11.83 587.598 3.43617 -0.290334 
0.888 -1.34 -1.38 0.8342 0.8027 11.86 587.346 4.02352 -0.771962 
0.890 -1.91 -1.94 0.8732 0.8056 11.86 586.844 5.19745 -0.884644 
0.891 0.12 0.09 0.7934 0.8437 11.86 586.593 5.78405 -0.478669 
0.892 2.95 2.92 0.8026 0.7922 11.87 586.342 0.0872037 0.0870932 
0.894 7.28 7.24 0.7824 0.7487 11.87 585.84 1.25914 0.951825 
0.895 7.33 7.29 0.7108 0.7757 11.85 585.59 1.84472 0.962716 
0.896 5.78 5.75 0.8272 0.7871 11.83 585.339 2.43006 0.652992 
0.898 0.30 0.27 0.8879 0.7754 11.85 584.838 3.59999 -0.442512 
0.899 -1.80 -1.84 0.7549 0.8634 11.86 584.588 4.18458 -0.863912 
0.900 -2.47 -2.51 0.9273 0.8215 11.87 584.338 4.76892 -0.998403 
0.902 0.82 0.79 0.8068 0.7962 11.86 583.838 5.93684 -0.33946 
0.903 3.69 3.66 0.8310 0.7944 11.87 583.588 0.237246 0.235026 
0.904 6.17 6.14 0.8014 0.7443 11.88 583.339 0.820584 0.731544 
0.906 7.09 7.06 0.7907 0.7627 11.84 582.839 1.98651 0.914827 
0.907 5.22 5.19 0.6890 0.7854 11.83 582.59 2.5691 0.541727 
0.908 2.47 2.43 0.8617 0.7515 11.83 582.341 3.15144 -0.00985067 
0.910 -2.09 -2.13 0.8946 0.7861 11.87 581.843 4.31538 -0.922221 
0.911 -2.40 -2.43 0.7386 0.8909 11.86 581.594 4.89697 -0.983013 
0.913 1.41 1.37 0.8262 0.8279 11.87 581.096 6.05941 -0.221909 
0.914 4.26 4.23 0.7863 0.7665 11.88 580.848 0.357075 0.349536 
0.915 6.55 6.51 0.7165 0.7643 11.88 580.599 0.937674 0.806184 
0.917 6.84 6.80 0.7170 0.7575 11.84 580.102 2.09813 0.864153 
0.918 4.74 4.73 0.8062 0.6403 11.82 579.854 2.67798 0.447181 
0.919 1.94 1.90 0.7466 0.8485 11.84 579.606 3.25759 -0.115735 
0.921 -2.27 -2.30 0.7602 0.8705 11.87 579.11 4.41606 -0.956414 
0.922 -2.29 -2.32 0.8977 0.7833 11.87 578.862 4.99492 -0.960354 
0.923 -0.74 -0.77 0.7284 0.8419 11.86 578.615 5.57353 -0.651571 
0.925 4.68 4.64 0.6440 0.7855 11.88 578.12 0.446834 0.432112 
0.926 6.79 6.76 0.7555 0.7024 11.88 577.872 1.02471 0.854562 
0.927 7.50 7.49 0.7614 0.7098 11.85 577.625 1.60233 0.999503 
0.929 4.39 4.36 0.7586 0.7478 11.83 577.131 2.75684 0.37533 
0.930 1.55 1.54 0.7590 0.8107 11.84 576.884 3.33372 -0.190951 
0.932 -2.37 -2.38 0.9052 0.7252 11.87 576.39 4.48675 -0.974652 
0.933 -2.18 -2.21 0.7226 0.8751 11.86 576.144 5.06289 -0.939199 
0.934 -0.50 -0.51 0.8548 0.7116 11.86 575.897 5.63879 -0.600713 
0.936 4.93 4.92 0.7634 0.6743 11.88 575.405 0.506662 0.485261 
0.937 6.93 6.90 0.7259 0.7901 11.88 575.158 1.08182 0.882814 
0.938 7.50 7.47 0.7348 0.6671 11.86 574.912 1.65673 0.99631 
0.940 4.16 4.13 0.7759 0.8482 11.82 574.42 2.80582 0.329499 
0.941 1.33 1.30 0.7933 0.8240 11.84 574.175 3.37999 -0.23615 
0.942 -1.11 -1.14 0.8155 0.7110 11.86 573.929 3.95392 -0.725892 
0.944 -2.11 -2.14 0.8076 0.7319 11.86 573.438 5.10105 -0.925419 
0.945 -0.33 -0.39 0.7930 0.8418 11.86 573.193 5.67424 -0.572005 
0.947 5.07 5.04 0.7281 0.7875 11.88 572.702 0.536702 0.511305 
0.948 6.99 6.96 0.7260 0.6611 11.88 572.457 1.10916 0.895325 
0.949 7.48 7.45 0.7268 0.7575 11.85 572.212 1.68137 0.993893 
0.951 4.08 4.03 0.7998 0.7671 11.82 571.723 2.82506 0.311271 
0.952 1.27 1.21 0.8337 0.7975 11.84 571.478 3.39654 -0.252195 
0.953 -1.16 -1.19 0.8457 0.8239 11.86 571.234 3.96777 -0.735349 
0.955 -2.10 -2.12 0.8385 0.8424 11.87 570.745 5.10951 -0.922179 
0.956 -0.32 -0.35 0.7634 0.6839 11.86 570.501 5.68001 -0.567261 
0.958 5.08 5.03 0.6405 0.6358 11.88 570.013 0.537093 0.51164 
0.959 7.00 6.94 0.7856 0.8037 11.88 569.769 1.10686 0.894299 
0.960 7.49 7.46 0.6189 0.7071 11.86 569.525 1.67639 0.994431 
0.962 4.12 4.09 0.7901 0.7927 11.83 569.038 2.81471 0.321096 
0.963 1.32 1.29 0.8258 0.7649 11.84 568.794 3.3835 -0.239555 
0.964 -1.09 -1.15 0.8158 0.9052 11.86 568.551 3.95205 -0.724603 
0.966 -2.14 -2.16 1.0632 0.7123 11.87 568.065 5.08842 -0.930128 
0.967 -0.42 -0.45 0.9034 0.8589 11.86 567.821 5.65625 -0.58667 
0.969 4.95 4.92 0.8010 0.8032 11.88 567.336 0.507974 0.486408 
0.970 6.90 6.90 0.6418 0.7009 11.88 567.093 1.07507 0.879622 
0.971 7.49 7.49 0.7879 0.7412 11.87 566.85 1.64192 0.997472 
0.973 4.29 4.29 0.8679 0.7954 11.82 566.365 2.77489 0.358539 
0.974 1.52 1.50 0.7992 0.8291 11.84 566.123 3.34101 -0.198102 
0.976 -2.36 -2.36 0.8834 0.8557 11.87 565.639 4.47253 -0.971372 
0.977 -2.22 -2.25 0.8828 0.8389 11.87 565.397 5.03793 -0.947478 
0.978 -0.63 -0.66 0.7163 0.8577 11.86 565.155 5.60308 -0.628871 
0.980 4.68 4.66 0.6819 0.7262 11.88 564.671 0.449484 0.4345 
0.981 6.76 6.73 0.7374 0.7399 11.88 564.43 1.01391 0.848907 
0.982 7.51 7.49 0.7219 0.7631 11.85 564.188 1.5781 0.999973 
0.984 4.62 4.60 0.7642 0.8336 11.82 563.706 2.70575 0.422171 
0.985 1.86 1.86 0.8615 0.7716 11.84 563.464 3.26922 -0.127279 
0.987 -2.25 -2.25 0.8635 0.8120 11.87 562.982 4.39542 -0.950186 
0.988 -2.34 -2.36 0.8537 0.9175 11.87 562.741 4.95816 -0.969949 
0.989 -0.94 -0.97 0.8197 0.8542 11.86 562.501 5.52067 -0.690746 
0.991 4.28 4.26 0.7606 0.8448 11.88 562.019 0.361759 0.35392 
0.992 6.49 6.49 0.7179 0.7163 11.88 561.779 0.923538 0.79774 
0.994 6.94 6.95 0.7396 0.7776 11.84 561.298 2.04638 0.889028 
0.995 5.06 5.03 0.6841 0.7920 11.83 561.058 2.60743 0.509118 
0.996 2.37 2.37 0.8379 0.8406 11.83 560.818 3.16825 -0.0266557 
0.998 -2.06 -2.06 0.8732 0.8347 11.87 560.338 4.28917 -0.911771 
0.999 -2.44 -2.46 0.7848 0.8435 11.87 560.099 4.84927 -0.990647 
1.001 0.96 0.94 0.8397 0.7790 11.86 559.619 5.96874 -0.309285 
1.002 3.72 3.70 0.7510 0.8069 11.87 559.38 0.24494 0.242498 
1.003 6.11 6.09 0.7435 0.7370 11.88 559.141 0.80408 0.720193 
1.005 7.21 7.18 0.6427 0.7580 11.84 558.662 1.92164 0.939082 
1.006 5.58 5.56 0.8382 0.8024 11.83 558.423 2.48007 0.614321 
1.008 0.32 0.29 0.8483 0.8672 11.85 557.945 3.5962 -0.439107 
1.009 -1.72 -1.76 0.7264 0.8618 11.87 557.707 4.1539 -0.848059 
1.011 -1.74 -1.76 0.8494 0.8459 11.86 557.23 5.2686 -0.849261 
1.012 0.30 0.28 0.7903 0.8814 11.86 556.991 5.82559 -0.44179 
1.013 3.00 2.98 0.7851 0.7768 11.87 556.753 0.0991599 0.0989975 
1.015 7.21 7.16 0.7057 0.8161 11.87 556.277 1.21195 0.936303 
1.016 7.41 7.39 0.7912 0.7467 11.86 556.039 1.76799 0.98062 
1.018 3.81 3.79 0.8371 0.8275 11.83 555.563 2.87935 0.259244 
1.019 1.07 1.04 0.7424 0.7669 11.84 555.325 3.43468 -0.288908 
1.020 -1.23 -1.27 0.8956 0.7874 11.86 555.088 3.98977 -0.750074 
1.022 -2.12 -2.14 0.8763 0.8020 11.86 554.613 5.09923 -0.926106 
1.023 -0.43 -0.45 0.7545 0.7936 11.86 554.375 5.6536 -0.588806 
1.025 4.81 4.79 0.7795 0.7331 11.88 553.901 0.478459 0.460411 
1.026 6.82 6.77 0.7907 0.7821 11.88 553.664 1.03212 0.85839 
1.027 7.52 7.47 0.6608 0.7519 11.86 553.427 1.58555 0.999891 
1.029 4.68 4.66 0.6848 0.7994 11.83 552.954 2.69169 0.434874 
1.030 2.00 1.98 0.8575 0.8544 11.83 552.717 3.24441 -0.102638 
1.032 -2.15 -2.20 0.8898 0.7648 11.87 552.244 4.34914 -0.934746 
1.033 -2.39 -2.43 0.7344 0.8624 11.87 552.008 4.90114 -0.982239 
1.035 1.15 1.10 0.8195 0.8115 11.86 551.536 6.00445 -0.275138 
1.036 3.87 3.82 0.7816 0.8404 11.87 551.3 0.272566 0.269204 
1.037 6.19 6.14 0.7133 0.7436 11.88 551.064 0.82363 0.733618 
1.039 7.21 7.17 0.7185 0.8310 11.84 550.592 1.92505 0.937905 
1.040 5.61 5.57 0.8069 0.7024 11.82 550.357 2.47541 0.617991 
1.042 0.42 0.37 0.8610 0.7409 11.85 549.886 3.57542 -0.420342 
1.043 -1.64 -1.69 0.7679 0.8616 11.87 549.651 4.12507 -0.832427 
1.045 -1.84 -1.88 0.7387 0.8547 11.87 549.181 5.22366 -0.872122 
1.046 0.08 0.03 0.8699 0.7766 11.86 548.946 5.77261 -0.488681 
1.047 2.71 2.67 0.6591 0.7552 11.87 548.711 0.0381333 0.0381241 
1.049 7.06 7.01 0.7669 0.7153 11.88 548.241 1.13485 0.906471 
1.050 7.49 7.44 0.7875 0.7872 11.85 548.007 1.68286 0.993728 
1.052 4.29 4.27 0.8313 0.7056 11.81 547.538 2.77817 0.355478 
1.053 1.61 1.56 0.7299 0.8513 11.85 547.304 3.32547 -0.182844 
1.055 -2.26 -2.31 0.7409 0.9108 11.87 546.835 4.41938 -0.957378 
1.056 -2.32 -2.36 0.8881 0.7546 11.87 546.601 4.96598 -0.968018 
1.057 -0.96 -1.01 0.7130 0.8442 11.86 546.368 5.51234 -0.696738 
1.059 4.10 4.05 0.7809 0.8014 11.88 545.9 0.321193 0.315699 
1.060 6.33 6.29 0.7467 0.8132 11.88 545.667 0.86686 0.7623 
1.062 7.15 7.11 0.7632 0.6404 11.84 545.2 1.95749 0.92616 
1.063 5.52 5.45 0.7632 0.8555 11.82 544.966 2.50246 0.5965 
1.065 0.35 0.30 0.7845 0.8684 11.85 544.5 3.59169 -0.435055 
1.066 -1.67 -1.72 0.8919 0.7525 11.87 544.267 4.13596 -0.838414 
1.068 -1.84 -1.88 0.8941 0.7604 11.87 543.802 5.2238 -0.872057 
1.069 0.06 0.01 0.7135 0.8241 11.86 543.569 5.76736 -0.493249 
1.070 2.66 2.61 0.8500 0.7455 11.87 543.336 0.0275161 0.0275126 
1.072 7.01 6.96 0.7508 0.7029 11.88 542.872 1.11349 0.897246 
1.073 7.50 7.46 0.7654 0.7159 11.85 542.639 1.65613 0.996361 
1.075 4.49 4.41 0.7771 0.7895 11.82 542.175 2.74071 0.390229 
1.076 1.82 1.77 0.8355 0.7091 11.83 541.943 3.28266 -0.140596 
1.078 -2.18 -2.23 0.9192 0.7368 11.87 541.479 4.36585 -0.940553 
1.079 -2.38 -2.43 0.7300 0.9038 11.87 541.248 4.90709 -0.981105 
1.081 1.09 1.01 0.6827 0.8712 11.87 540.785 5.9889 -0.29006 
1.082 3.76 3.68 0.7773 0.6960 11.88 540.553 0.246263 0.243782 
1.083 6.08 6.00 0.7586 0.7763 11.89 540.322 0.786585 0.707946 
1.085 7.33 7.23 0.7242 0.7433 11.84 539.86 1.86654 0.956587 
1.086 5.91 5.80 0.7736 0.6567 11.82 539.629 2.40616 0.670905 
1.088 0.87 0.77 0.8196 0.7356 11.85 539.167 3.48473 -0.336443 
1.089 -1.31 -1.41 0.8565 0.8830 11.86 538.936 4.02367 -0.772058 
1.091 -2.09 -2.17 0.7458 0.8541 11.87 538.475 5.10085 -0.925494 
1.092 -0.46 -0.54 0.8672 0.7465 11.87 538.245 5.63909 -0.600473 
1.094 4.63 4.55 0.8470 0.7164 11.88 537.784 0.431706 0.418421 
1.095 6.67 6.57 0.6885 0.7120 11.89 537.554 0.969261 0.824467 
1.097 7.00 6.90 0.7369 0.7331 11.84 537.094 2.04368 0.890259 
1.098 5.21 5.11 0.7904 0.8121 11.82 536.865 2.58054 0.532074 
1.100 0.10 -0.00 0.8008 0.7265 11.85 536.405 3.65358 -0.489914 
1.101 -1.78 -1.88 0.8575 0.8834 11.87 536.176 4.18976 -0.86651 
1.102 -2.46 -2.54 0.9201 0.7313 11.87 535.946 4.72571 -0.999911 
1.104 0.20 0.12 0.8422 0.7127 11.86 535.488 5.79691 -0.467335 
1.105 2.78 2.71 0.6591 0.8084 11.87 535.259 0.0489852 0.0489656 
1.107 7.05 6.95 0.7227 0.7706 11.88 534.801 1.11882 0.899584 
1.108 7.54 7.43 0.7519 0.8083 11.85 534.572 1.65339 0.996591 
1.110 4.59 4.48 0.8032 0.6883 11.82 534.115 2.72185 0.407529 
1.111 1.98 1.88 0.8161 0.8568 11.84 533.886 3.25573 -0.113892 
1.113 -2.07 -2.18 0.8735 0.8932 11.87 533.429 4.32282 -0.925073 
1.114 -2.41 -2.49 0.9052 0.7530 11.87 533.201 4.85602 -0.989703 
1.116 0.77 0.69 0.8454 0.7285 11.86 532.745 5.92174 -0.353627 
1.117 3.40 3.30 0.7393 0.8030 11.87 532.517 0.171071 0.170238 
1.119 7.28 7.17 0.7283 0.7086 11.87 532.062 1.23542 0.944287 
1.120 7.46 7.35 0.7506 0.7181 11.84 531.834 1.76726 0.980764 
1.122 4.08 3.98 0.8100 0.8119 11.83 531.379 2.83024 0.306346 
1.123 1.46 1.35 0.8318 0.8234 11.84 531.152 3.36139 -0.218034 
1.125 -2.24 -2.35 0.8664 0.8792 11.87 530.697 4.42301 -0.958422 
1.126 -2.31 -2.40 0.9177 0.7192 11.87 530.47 4.95348 -0.971077 
1.128 1.21 1.13 0.8264 0.6858 11.86 530.016 6.01374 -0.266194 
1.129 3.84 3.73 0.7614 0.7949 11.87 529.789 0.260347 0.257416 
1.130 6.11 6.00 0.7523 0.6612 11.88 529.563 0.78991 0.71029 
1.132 7.35 7.27 0.7627 0.7705 11.84 529.11 1.84836 0.961727 
1.133 6.01 5.91 0.7637 0.8884 11.82 528.883 2.37724 0.69207 
1.135 1.11 1.00 0.8212 0.7527 11.85 528.431 3.43433 -0.288571 
1.136 -1.10 -1.21 0.8508 0.7678 11.86 528.205 3.96253 -0.731786 
1.138 -2.20 -2.34 0.8575 0.7416 11.88 527.753 5.01826 -0.953584 
1.139 -0.79 -0.93 0.8147 0.8310 11.84 527.527 5.54579 -0.672362 
1.141 4.13 3.99 0.7552 0.7785 11.87 527.076 0.316982 0.311701 
1.142 6.29 6.18 0.7492 0.7074 11.88 526.85 0.843833 0.747196 
1.144 7.29 7.18 0.7587 0.7643 11.84 526.4 1.89686 0.947311 
1.145 5.86 5.72 0.7657 1.0343 11.83 526.174 2.42303 0.658302 
1.147 0.94 0.79 0.8412 0.8334 11.84 525.724 3.4747 -0.326986 
1.148 -1.21 -1.35 0.8217 0.8575 11.86 525.499 4.0002 -0.756936 
1.150 -2.16 -2.27 0.9141 0.7684 11.87 525.05 5.05053 -0.943374 
1.151 -0.67 -0.83 0.7837 0.8621 11.86 524.825 5.57535 -0.650188 
1.153 4.24 4.10 0.7568 0.7568 11.88 524.376 0.341144 0.334566 
1.154 6.38 6.24 0.7491 0.7587 11.88 524.152 0.865296 0.761287 
1.156 7.28 7.14 0.7687 0.7821 11.84 523.703 1.91293 0.942042 
1.157 5.81 5.67 0.7734 0.7851 11.82 523.479 2.43641 0.648176 
1.159 0.90 0.76 0.8302 0.7638 11.84 523.031 3.48269 -0.334523 
1.160 -1.23 -1.37 0.8582 0.8814 11.86 522.807 4.0055 -0.760386 
1.162 -2.14 -2.29 0.8619 0.7854 11.85 522.36 5.05044 -0.943402 
1.163 -0.68 -0.85 0.8208 0.8254 11.85 522.137 5.57258 -0.652292 
1.165 4.21 4.06 0.7605 0.7586 11.88 521.69 0.332998 0.326878 
1.166 6.34 6.20 0.7549 0.7571 11.88 521.467 0.854465 0.75422 
1.168 7.31 7.16 0.7637 0.7729 11.84 521.021 1.89673 0.947352 
1.169 5.88 5.74 0.7727 0.7861 11.82 520.798 2.41753 0.662435 
1.171 1.02 0.87 0.8489 0.8395 11.85 520.352 3.45845 -0.311586 
1.172 -1.14 -1.29 0.8275 0.8620 11.86 520.13 3.97858 -0.742632 
1.174 -2.21 -2.33 0.9272 0.8798 11.86 519.685 5.01818 -0.95361 
1.175 -0.83 -0.95 0.7102 0.7570 11.86 519.462 5.53764 -0.678374 
1.177 4.02 3.87 0.6789 0.7437 11.87 519.018 0.29271 0.288548 
1.178 6.20 6.05 0.7598 0.7505 11.87 518.796 0.811506 0.725325 
1.180 7.37 7.25 0.7668 0.7663 11.84 518.352 1.84843 0.961706 
1.181 6.07 5.92 0.7687 0.7916 11.82 518.13 2.36656 0.699738 
1.183 1.27 1.15 0.8274 0.6972 11.84 517.687 3.40216 -0.257626 
1.185 -2.25 -2.37 0.8493 0.8026 11.85 517.244 4.43687 -0.962283 
1.186 -2.29 -2.42 0.9145 0.8810 11.86 517.023 4.95389 -0.97098 
1.188 1.10 0.98 0.8495 0.8095 11.85 516.58 5.98727 -0.291614 
1.189 3.66 3.53 0.6670 0.7449 11.87 516.359 0.220445 0.218664 
1.191 7.31 7.18 0.7245 0.6843 11.87 515.918 1.2525 0.94977 
1.192 7.47 7.34 0.7451 0.7063 11.84 515.697 1.7682 0.980579 
1.194 4.24 4.12 0.8103 0.7713 11.82 515.256 2.79893 0.335996 
1.195 1.71 1.58 0.8311 0.8300 11.84 515.035 3.31397 -0.17152 
1.197 -2.10 -2.23 0.7649 0.7293 11.87 514.595 4.34337 -0.932683 
1.198 -2.37 -2.52 0.9283 0.8819 11.86 514.374 4.85775 -0.989454 
1.200 0.64 0.49 0.8377 0.8325 11.88 513.934 5.88584 -0.386975 
1.201 3.14 3.02 0.6568 0.6720 11.88 513.714 0.116366 0.116104 
1.203 7.13 6.97 0.7220 0.6560 11.87 513.275 1.14314 0.909938 
1.204 7.56 7.40 0.7555 0.7716 11.85 513.055 1.65619 0.996356 
1.206 4.80 4.64 0.7697 0.7933 11.82 512.616 2.68164 0.443903 
1.207 2.32 2.16 0.8073 0.7002 11.83 512.397 3.19404 -0.0524234 
1.209 -1.84 -1.97 0.8194 0.7537 11.87 511.959 4.21818 -0.880342 
1.210 -2.43 -2.56 0.9144 0.8941 11.89 511.74 4.72992 -0.999846 
1.212 0.04 -0.10 1.0007 0.8235 11.85 511.302 5.75274 -0.505918 
1.214 4.91 4.81 0.8425 0.7747 11.87 510.864 0.491501 0.47195 
1.215 6.78 6.65 0.6574 0.6909 11.88 510.646 1.00215 0.842629 
1.217 7.06 6.93 0.7410 0.7272 11.82 510.209 2.02278 0.899581 
1.218 5.43 5.29 0.7952 0.7665 11.81 509.991 2.53277 0.571899 
1.220 0.57 0.44 0.8081 0.8341 11.85 509.554 3.5521 -0.399075 
1.221 -1.41 -1.54 0.7984 0.7328 11.87 509.336 4.06144 -0.795507 
1.223 -2.11 -2.22 0.7287 0.7170 11.87 508.901 5.07946 -0.933384 
1.224 -0.65 -0.76 0.8628 0.8671 11.87 508.683 5.58814 -0.640421 
1.226 4.13 4.03 0.7713 0.7857 11.87 508.248 0.321667 0.316148 
1.227 6.24 6.13 0.7589 0.6557 11.88 508.03 0.829697 0.737727 
1.229 7.38 7.25 0.7312 0.8079 11.84 507.596 1.84511 0.962613 
1.231 3.94 3.84 0.7982 0.7915 11.80 507.161 2.85965 0.278227 
1.232 1.45 1.32 0.8285 0.8646 11.82 506.944 3.36659 -0.223103 
1.234 -2.17 -2.28 0.9145 0.8910 11.86 506.511 4.37983 -0.945209 
1.235 -2.37 -2.48 0.7620 0.7477 11.86 506.294 4.88612 -0.984946 
1.237 0.68 0.57 0.7052 0.7144 11.87 505.861 5.89806 -0.375676 
1.238 3.17 3.03 0.8686 0.7892 11.87 505.644 0.120518 0.120227 
1.240 7.09 6.96 0.7368 0.7304 11.87 505.212 1.13116 0.904906 
1.241 7.56 7.42 0.7206 0.7526 11.85 504.996 1.63615 0.997865 
1.243 4.95 4.81 0.7802 0.7750 11.81 504.564 2.6455 0.475996 
1.244 2.53 2.39 0.7838 0.8136 11.82 504.348 3.14984 -0.00825166 
1.246 -1.70 -1.81 0.9300 0.7937 11.87 503.916 4.15789 -0.850165 
1.248 -1.93 -2.06 0.8895 0.8836 11.86 503.485 5.16508 -0.899274 
1.249 -0.31 -0.45 0.7052 0.6986 11.86 503.27 5.66835 -0.576826 
1.251 4.46 4.35 0.7749 0.7802 11.88 502.839 0.391056 0.381165 
1.252 6.45 6.34 0.7462 0.7254 11.88 502.624 0.89368 0.779383 
1.254 7.30 7.16 0.7567 0.7436 11.83 502.194 1.89828 0.946854 
1.255 5.95 5.81 0.7628 0.7859 11.81 501.979 2.40026 0.67527 
1.257 1.27 1.14 0.8401 0.8538 11.83 501.55 3.40358 -0.258996 
1.259 -2.21 -2.32 0.7778 0.8862 11.87 501.121 4.40603 -0.953438 
1.260 -2.35 -2.46 0.9156 0.7960 11.87 500.906 4.90694 -0.981135 
1.262 0.72 0.61 0.8776 0.7885 11.86 500.478 5.90811 -0.366346 
1.263 3.18 3.07 0.6493 0.7856 11.87 500.263 0.125185 0.124858 
1.265 7.07 6.95 0.7630 0.7384 11.87 499.835 1.12507 0.902298 
1.266 7.55 7.43 0.7915 0.6887 11.85 499.622 1.62469 0.998548 
1.268 5.03 4.92 0.7483 0.7937 11.80 499.194 2.62329 0.495404 
1.270 0.24 0.15 0.9116 0.7160 11.84 498.767 3.62104 -0.46129 
1.271 -1.59 -1.70 0.7551 0.8839 11.86 498.554 4.11959 -0.829383 
1.273 -2.04 -2.15 0.7370 0.8804 11.86 498.127 5.11606 -0.919624 
1.274 -0.54 -0.66 0.8126 0.7596 11.85 497.914 5.61398 -0.620366 
1.276 4.16 4.04 0.7585 0.7390 11.88 497.488 0.32598 0.320237 
1.277 6.21 6.12 0.6981 0.7572 11.88 497.275 0.823255 0.733363 
1.279 7.41 7.29 0.7269 0.7263 11.83 496.85 1.81717 0.969804 
1.281 4.18 4.07 0.7881 0.8624 11.81 496.425 2.81023 0.325333 
1.282 1.72 1.64 0.7993 0.7260 11.83 496.212 3.30644 -0.164103 
1.284 -2.03 -2.12 0.9213 0.7489 11.87 495.788 4.29823 -0.915455 
1.285 -2.42 -2.54 0.7548 0.8564 11.86 495.576 4.7938 -0.996688 
1.287 0.17 0.05 0.6804 0.8163 11.85 495.152 5.78432 -0.47843 
1.289 4.90 4.81 0.7819 0.7085 11.88 494.728 0.490802 0.471334 
1.290 6.71 6.62 0.7757 0.6848 11.87 494.516 0.985319 0.833448 
1.292 7.16 7.04 0.7664 0.7793 11.81 494.093 1.97372 0.91992 
1.293 5.68 5.56 0.7682 0.7702 11.81 493.882 2.4676 0.624112 
1.295 1.02 0.90 0.8167 0.8558 11.84 493.459 3.45473 -0.308044 
1.296 -1.06 -1.15 0.9034 0.7318 11.86 493.248 3.94798 -0.721789 
1.298 -2.33 -2.42 0.8495 0.7435 11.86 492.826 4.93384 -0.97558 
1.300 0.76 0.67 0.8297 0.7104 11.86 492.405 5.91886 -0.356319 
1.301 3.18 3.09 0.7384 0.7845 11.87 492.194 0.127869 0.127521 
1.303 7.03 6.94 0.7028 0.7117 11.87 491.773 1.11163 0.89642 
1.304 7.53 7.47 0.7979 0.7410 11.84 491.562 1.60319 0.999475 
1.306 5.18 5.09 0.7566 0.8173 11.81 491.142 2.58568 0.527717 
1.308 0.47 0.40 0.9140 0.8562 11.85 490.722 3.56734 -0.412997 
1.309 -1.42 -1.51 0.7705 0.8594 11.86 490.512 4.05785 -0.793327 
1.311 -2.19 -2.28 0.7321 0.8405 11.86 490.092 5.03824 -0.947378 
1.312 -0.88 -0.97 0.8293 0.7622 11.85 489.882 5.52812 -0.685333 
1.314 3.64 3.58 0.8293 0.7563 11.88 489.463 0.224075 0.222204 
1.316 7.20 7.13 0.7814 0.7360 11.86 489.045 1.20237 0.932896 
1.317 7.49 7.43 0.6496 0.7341 11.84 488.835 1.69121 0.992759 
1.319 4.81 4.75 0.6988 0.7254 11.80 488.417 2.66825 0.455862 
1.320 2.46 2.39 0.8608 0.8351 11.82 488.208 3.15646 -0.0148666 
1.322 -1.65 -1.71 0.8402 0.8974 11.86 487.79 4.13225 -0.836386 
1.324 -2.08 -2.15 0.8620 0.8670 11.85 487.373 5.1072 -0.923068 
1.325 -0.65 -0.71 0.7824 0.7787 11.85 487.165 5.59437 -0.635624 
1.327 3.94 3.87 0.7038 0.7417 11.88 486.748 0.284887 0.281049 
1.329 7.29 7.23 0.6589 0.7194 11.86 486.331 1.25776 0.951402 
1.330 7.47 7.38 0.7382 0.7626 11.83 486.123 1.74388 0.985058 
1.332 4.60 4.54 0.7529 0.8340 11.80 485.707 2.7155 0.413312 
1.333 2.23 2.17 0.8318 0.7127 11.83 485.5 3.201 -0.0593767 
1.335 -1.75 -1.81 0.7482 0.8269 11.87 485.084 4.17138 -0.85719 
1.337 -2.02 -2.08 0.9046 0.8196 11.86 484.669 5.14093 -0.909575 
1.338 -0.53 -0.59 0.8854 0.8080 11.85 484.462 5.62539 -0.611375 
1.340 4.06 4.00 0.8031 0.7605 11.88 484.047 0.310505 0.30554 
1.341 6.08 6.05 0.6405 0.7646 11.88 483.84 0.794345 0.713405 
1.343 7.42 7.39 0.6555 0.6215 11.83 483.426 1.76141 0.981889 
1.345 4.54 4.48 0.7670 0.6759 11.81 483.013 2.72764 0.402233 
1.346 2.17 2.14 0.8168 0.8547 11.83 482.806 3.21044 -0.0687969 
1.348 -1.78 -1.81 0.8977 0.8613 11.86 482.393 4.17544 -0.859272 
1.350 -2.02 -2.08 0.8739 0.8481 11.86 481.98 5.1396 -0.910123 
1.351 -0.54 -0.60 0.7826 0.8031 11.85 481.774 5.62138 -0.614544 
1.353 4.01 3.95 0.9331 0.6313 11.87 481.362 0.301122 0.296592 
1.355 7.29 7.24 0.6443 0.6209 11.86 480.95 1.26323 0.953073 
1.356 7.45 7.40 0.8037 0.7763 11.84 480.744 1.74397 0.985042 
1.358 4.63 4.60 0.9217 0.8242 11.81 480.333 2.70484 0.422995 
1.359 2.30 2.27 0.7234 0.7626 11.82 480.128 3.18497 -0.043366 
1.361 -1.70 -1.73 0.9108 0.8426 11.87 479.717 4.14461 -0.843098 
1.363 -2.11 -2.14 0.7611 0.8328 11.85 479.306 5.10343 -0.924513 
1.364 -0.71 -0.74 0.8382 0.7905 11.86 479.101 5.58253 -0.644718 
1.366 3.78 3.76 0.8436 0.7296 11.88 478.691 0.256933 0.254116 
1.368 7.20 7.17 0.7744 0.7648 11.86 478.282 1.2137 0.936916 
1.369 7.48 7.45 0.7061 0.7448 11.84 478.077 1.69178 0.992691 
1.371 4.88 4.86 0.7827 0.8283 11.81 477.668 2.64732 0.474391 
1.373 0.28 0.28 0.8278 0.8498 11.85 477.26 3.60204 -0.444352 
1.374 -1.52 -1.54 0.8773 0.8622 11.87 477.055 4.0791 -0.806085 
1.376 -2.23 -2.26 0.8926 0.8769 11.86 476.647 5.0326 -0.94917 
1.377 -0.98 -1.01 0.7659 0.6940 11.86 476.443 5.50904 -0.699104 
1.379 3.40 3.37 0.6624 0.6441 11.87 476.036 0.178131 0.177191 
1.381 7.03 7.01 0.6806 0.7258 11.86 475.629 1.12959 0.904238 
1.382 7.51 7.48 0.7401 0.7313 11.84 475.425 1.60502 0.999415 
1.384 5.28 5.25 0.7265 0.7926 11.81 475.018 2.55526 0.553313 
1.386 0.72 0.72 0.8985 0.8179 11.85 474.612 3.50468 -0.355165 
1.387 -1.22 -1.21 0.7855 0.8645 11.86 474.409 3.97909 -0.742972 
1.389 -2.37 -2.40 0.7575 0.8904 11.86 474.003 4.9273 -0.976995 
1.391 0.54 0.49 0.6831 0.6637 11.86 473.597 5.8747 -0.397221 
1.392 2.85 2.80 0.8301 0.8116 11.87 473.395 0.0649082 0.0648626 
1.394 6.75 6.72 0.7402 0.7240 11.88 472.99 1.01109 0.847411 
1.396 7.16 7.11 0.7658 0.7503 11.83 472.585 1.95646 0.926548 
1.397 5.79 5.75 0.7656 0.7947 11.81 472.383 2.42885 0.653915 
1.399 1.38 1.33 0.8292 0.8532 11.84 471.979 3.37301 -0.229353 
1.401 -2.10 -2.12 0.8489 0.7934 11.87 471.575 4.31636 -0.922599 
1.402 -2.46 -2.51 0.9051 0.9069 11.87 471.373 4.78773 -0.997163 
1.404 -0.10 -0.15 0.8366 0.8317 11.86 470.97 5.72987 -0.525509 
1.406 4.42 4.37 0.8090 0.7870 11.88 470.567 0.388022 0.378358 
1.407 6.31 6.26 0.7008 0.7439 11.88 470.366 0.858388 0.75679 
1.409 7.39 7.35 0.7139 0.7549 11.84 469.963 1.79852 0.974184 
1.411 4.49 4.44 0.7909 0.7990 11.81 469.561 2.73784 0.392873 
1.412 2.19 2.15 0.7908 0.8252 11.83 469.36 3.2072 -0.0655594 
1.414 -1.69 -1.74 0.8153 0.8824 11.87 468.959 4.14532 -0.843478 
1.416 -2.14 -2.18 0.8727 0.8664 11.86 468.558 5.08263 -0.932239 
1.417 -0.82 -0.86 0.7872 0.7497 11.86 468.357 5.55099 -0.668504 
1.419 3.54 3.49 0.7326 0.7800 11.88 467.956 0.203918 0.202508 
1.421 7.06 7.02 0.6961 0.7462 11.86 467.556 1.13923 0.908312 
1.422 7.52 7.47 0.6827 0.7379 11.84 467.356 1.60659 0.99936 
1.424 5.36 5.29 0.7403 0.8271 11.81 466.956 2.5407 0.56538 
1.426 0.90 0.83 0.7763 0.7841 11.85 466.557 3.47401 -0.32633 
1.427 -1.06 -1.10 0.8736 0.9038 11.86 466.357 3.94037 -0.716503 
1.429 -2.41 -2.46 0.8773 0.8041 11.86 465.958 4.87248 -0.987212 
1.431 0.23 0.16 0.7834 0.7186 11.86 465.559 5.8038 -0.461232 
1.433 4.70 4.66 0.7113 0.7684 11.88 465.161 0.451139 0.435991 
1.434 6.50 6.43 0.7525 0.7324 11.88 464.962 0.916101 0.793233 
1.436 7.35 7.28 0.6584 0.7521 11.83 464.564 1.84543 0.962525 
1.438 4.33 4.26 0.6971 0.8137 11.82 464.167 2.77396 0.359407 
1.439 2.06 1.98 0.8720 0.8471 11.83 463.968 3.23793 -0.0961873 
1.441 -1.73 -1.81 0.8991 0.9062 11.87 463.571 4.16527 -0.854027 
1.443 -2.09 -2.19 0.8242 0.8278 11.86 463.175 5.09182 -0.928876 
1.444 -0.78 -0.88 0.8188 0.7747 11.86 462.977 5.55479 -0.66567 
1.446 3.53 3.43 0.7021 0.7415 11.87 462.58 0.196968 0.195697 
1.448 7.05 6.95 0.6716 0.7157 11.87 462.185 1.12154 0.900768 
1.449 7.55 7.45 0.7172 0.7438 11.84 461.987 1.58352 0.999919 
1.451 5.53 5.40 0.7809 0.8309 11.81 461.592 2.5069 0.592927 
1.453 1.14 1.02 0.7966 0.8678 11.84 461.197 3.42949 -0.283941 
1.455 -2.13 -2.23 0.9334 0.8842 11.87 460.802 4.3513 -0.935511 
1.456 -2.42 -2.52 0.7253 0.8229 11.86 460.605 4.8119 -0.995053 
1.458 -0.08 -0.15 1.1300 0.7886 11.86 460.211 5.73252 -0.523253 
1.460 4.34 4.27 0.6507 0.7295 11.88 459.817 0.369168 0.360839 
1.461 6.22 6.15 0.7575 0.7354 11.87 459.621 0.828788 0.737113 
1.463 7.46 7.38 0.7395 0.7138 11.84 459.227 1.74744 0.984439 
1.465 4.83 4.75 0.7394 0.8447 11.81 458.835 2.6653 0.458483 
1.467 0.40 0.33 0.7922 0.8861 11.85 458.442 3.58238 -0.426656 
1.468 -1.36 -1.46 0.8557 0.8214 11.87 458.246 4.04063 -0.782729 
1.470 -2.31 -2.39 0.8458 0.8111 11.86 457.854 4.95653 -0.970344 
1.472 0.54 0.46 0.7465 0.7905 11.86 457.462 5.87165 -0.400013 
1.473 2.77 2.69 0.7966 0.7778 11.87 457.266 0.0457351 0.0457191 
1.475 6.64 6.54 0.7296 0.7384 11.87 456.875 0.959681 0.819008 
1.477 7.31 7.24 0.7589 0.7821 11.84 456.484 1.87284 0.954729 
1.479 4.29 4.19 0.7519 0.9594 11.83 456.094 2.78523 0.34887 
1.480 2.05 1.95 0.8587 0.7689 11.83 455.899 3.24113 -0.0993689 
1.482 -1.69 -1.79 0.8674 0.8503 11.87 455.509 4.15234 -0.847228 
1.484 -2.15 -2.25 0.7542 0.8481 11.86 455.119 5.06277 -0.939242 
1.485 -0.91 -1.01 0.8325 0.8349 11.86 454.924 5.51769 -0.692891 
1.487 3.27 3.17 0.8404 0.7552 11.88 454.535 0.143774 0.143279 
1.489 6.89 6.79 0.7232 0.7587 11.87 454.146 1.05226 0.868546 
1.491 7.18 7.07 0.7584 0.8131 11.82 453.758 1.95997 0.925223 
1.492 5.88 5.78 0.7834 0.6954 11.81 453.563 2.41353 0.665423 
1.494 1.66 1.56 0.8518 0.7597 11.84 453.175 3.32008 -0.177539 
1.496 -1.87 -1.97 0.8701 0.9355 11.87 452.788 4.22585 -0.883955 
1.498 -2.02 -2.12 0.8611 0.7152 11.86 452.4 5.13084 -0.913719 
1.499 -0.67 -0.77 0.7963 0.8415 11.86 452.207 5.58305 -0.644324 
1.501 3.56 3.46 0.7370 0.7976 11.88 451.82 0.203695 0.202289 
1.503 7.02 6.92 0.7173 0.7655 11.87 451.433 1.10675 0.894251 
1.505 7.08 6.97 0.6286 0.7409 11.83 451.047 2.00904 0.905498 
1.506 5.70 5.60 0.8010 0.7970 11.82 450.854 2.4599 0.630112 
1.508 1.45 1.37 0.8609 0.8371 11.84 450.468 3.36102 -0.217675 
1.510 -1.95 -2.05 0.8836 0.8971 11.87 450.083 4.26138 -0.900009 
1.512 -1.95 -2.06 0.8805 0.7075 11.86 449.698 5.16097 -0.901062 
1.513 -0.56 -0.67 0.7618 0.8337 11.86 449.506 5.61048 -0.623106 
1.515 3.67 3.57 0.7504 0.8121 11.88 449.121 0.225726 0.223814 
1.517 7.06 6.96 0.7396 0.7063 11.86 448.737 1.12339 0.901573 
1.518 7.55 7.45 0.7394 0.7410 11.84 448.545 1.57194 0.999999 
1.520 5.67 5.56 0.7982 0.7980 11.81 448.161 2.46845 0.623446 
1.522 1.45 1.34 0.8733 0.8582 11.84 447.778 3.3642 -0.22077 
1.524 -1.94 -2.05 0.9007 0.7594 11.87 447.394 4.25918 -0.899046 
1.526 -1.97 -2.07 0.8769 0.7388 11.86 447.012 5.15339 -0.904324 
1.527 -0.60 -0.71 0.7762 0.8217 11.86 446.82 5.60021 -0.631101 
1.529 3.60 3.49 0.7435 0.7616 11.88 446.438 0.210096 0.208553 
1.531 7.00 6.92 0.7424 0.7174 11.87 446.056 1.1024 0.892293 
1.533 7.11 7.00 0.6745 0.7562 11.83 445.675 1.99394 0.911803 
1.534 5.78 5.67 0.8131 0.7775 11.82 445.484 2.43942 0.645876 
1.536 1.62 1.51 0.8944 0.8517 11.84 445.103 3.32982 -0.187117 
1.538 -1.86 -1.95 0.8986 0.9051 11.87 444.722 4.21945 -0.880948 
1.540 -2.06 -2.17 0.8374 0.7316 11.86 444.342 5.10833 -0.922635 
1.541 -0.78 -0.89 0.8302 0.8030 11.86 444.151 5.55248 -0.667396 
1.543 3.32 3.24 0.7476 0.7481 11.87 443.771 0.157026 0.156382 
1.545 6.88 6.77 0.6799 0.7075 11.87 443.392 1.044 0.864422 
1.547 7.22 7.14 0.6840 0.6159 11.83 443.012 1.93021 0.936102 
1.548 6.03 5.92 0.8144 0.8177 11.81 442.823 2.37304 0.695097 
1.550 1.97 1.86 0.8846 0.8578 11.84 442.444 3.25811 -0.116259 
1.552 -1.67 -1.75 0.8963 0.8845 11.87 442.066 4.14244 -0.841926 
1.554 -2.21 -2.30 0.8468 0.8704 11.86 441.687 5.026 -0.951226 
1.556 0.71 0.63 0.7723 0.7958 11.86 441.309 5.90881 -0.365694 
1.557 2.87 2.79 0.7500 0.7415 11.87 441.121 0.0667421 0.0666926 
1.559 6.62 6.51 0.6229 0.7178 11.87 440.743 0.948417 0.812494 
1.561 7.37 7.29 0.6422 0.6244 11.83 440.366 1.82934 0.966764 
1.563 4.63 4.55 0.6961 0.6825 11.82 439.989 2.70951 0.418767 
1.564 2.50 2.42 0.8182 0.8617 11.83 439.801 3.14931 -0.00771404 
1.566 -1.33 -1.42 0.9008 0.8703 11.87 439.425 4.02834 -0.775023 
1.568 -2.37 -2.45 0.8691 0.8729 11.86 439.049 4.90663 -0.981194 
1.570 0.15 0.07 0.7841 0.8256 11.86 438.673 5.78417 -0.478565 
1.572 4.38 4.30 0.7201 0.7431 11.88 438.298 0.377764 0.368843 
1.573 6.18 6.10 0.6389 0.6192 11.88 438.111 0.815874 0.728325 
1.575 7.50 7.42 0.6411 0.6356 11.83 437.736 1.69153 0.99272 
1.577 5.26 5.18 0.6905 0.7303 11.81 437.361 2.56644 0.54396 
1.579 1.07 0.99 0.8932 0.8286 11.85 436.987 3.4406 -0.294576 
1.581 -2.08 -2.13 0.8482 0.8626 11.87 436.613 4.31402 -0.921694 
1.582 -2.46 -2.54 0.8822 0.8786 11.86 436.426 4.75044 -0.999276 
1.584 -0.53 -0.61 0.8495 0.8021 11.85 436.053 5.62274 -0.613472 
1.586 3.58 3.52 0.7310 0.7898 11.87 435.68 0.211097 0.209533 
1.588 6.96 6.87 0.7319 0.7714 11.87 435.307 1.0819 0.882851 
1.590 7.17 7.11 0.7718 0.7324 11.82 434.935 1.95195 0.928235 
1.591 5.95 5.90 0.7514 0.7928 11.81 434.749 2.3867 0.685209 
1.593 1.97 1.89 0.8251 0.9061 11.84 434.377 3.25564 -0.113802 
1.595 -1.63 -1.69 0.8546 0.7474 11.87 434.005 4.12384 -0.831746 
1.597 -2.28 -2.33 0.8073 0.7405 11.86 433.634 4.99129 -0.961358 
1.599 0.46 0.41 0.7876 0.6992 11.86 433.263 5.858 -0.412488 
1.600 2.57 2.51 0.7340 0.7938 11.87 433.078 0.00789421 0.00789413 
1.602 6.37 6.29 0.7191 0.7379 11.87 432.707 0.873493 0.766577 
1.604 7.46 7.40 0.7724 0.7359 11.83 432.337 1.73835 0.985995 
1.606 5.09 5.04 0.8028 0.7834 11.81 431.967 2.60247 0.513383 
1.608 0.95 0.87 0.9140 0.8642 11.85 431.597 3.46585 -0.318605 
1.610 -2.10 -2.18 0.9197 0.9096 11.87 431.228 4.32849 -0.927212 
1.611 -2.45 -2.53 0.7520 0.7424 11.86 431.044 4.75953 -0.998889 
1.613 -0.55 -0.60 0.8257 0.7107 11.86 430.675 5.62107 -0.614787 
1.615 3.53 3.45 0.7188 0.6716 11.88 430.306 0.198681 0.197376 
1.617 6.90 6.82 0.6826 0.7778 11.87 429.938 1.05874 0.871739 
1.619 7.23 7.17 0.6935 0.7629 11.82 429.57 1.91807 0.940306 
1.621 4.31 4.26 0.7396 0.8564 11.81 429.203 2.77666 0.356891 
1.622 2.22 2.14 0.8959 0.8801 11.83 429.019 3.20567 -0.0640381 
1.624 -1.44 -1.52 0.9507 0.8874 11.86 428.652 4.06316 -0.796552 
1.626 -2.37 -2.42 0.8557 0.8682 11.86 428.286 4.91992 -0.978543 
1.628 0.10 0.04 0.7614 0.7647 11.86 427.919 5.77594 -0.485773 
1.630 4.24 4.17 0.7642 0.7013 11.87 427.553 0.348042 0.341058 
1.632 7.19 7.14 0.7828 0.7199 11.86 427.187 1.2026 0.932978 
1.633 7.53 7.45 0.6981 0.7476 11.83 427.004 1.6296 0.998271 
1.635 5.60 5.52 0.7754 0.8170 11.81 426.639 2.48306 0.611953 
1.637 1.56 1.51 0.8274 0.8821 11.84 426.274 3.3358 -0.192985 
1.639 -1.79 -1.87 0.8722 0.7918 11.87 425.909 4.1878 -0.865528 
1.641 -2.20 -2.27 0.8463 0.9241 11.86 425.545 5.03907 -0.947113 
1.643 0.62 0.54 0.7351 0.6669 11.87 425.181 5.88961 -0.38349 
1.644 2.70 2.62 0.8133 0.8268 11.87 424.999 0.0314271 0.0314219 
1.646 6.39 6.32 0.7717 0.7552 11.87 424.635 0.88088 0.771299 
1.648 7.48 7.40 0.7404 0.7329 11.83 424.272 1.72961 0.987416 
1.650 5.21 5.13 0.7347 0.7586 11.81 423.909 2.57761 0.53456 
1.652 1.13 1.08 0.9086 0.8318 11.85 423.547 3.42488 -0.279514 
1.654 -1.98 -2.06 0.9044 0.8729 11.88 423.184 4.27143 -0.904343 
1.656 -2.06 -2.13 0.8869 0.8591 11.86 422.822 5.11726 -0.919155 
1.657 -0.84 -0.92 0.7048 0.6834 11.86 422.641 5.5399 -0.676713 
1.659 3.04 2.97 0.6422 0.6300 11.87 422.28 0.101452 0.101278 
1.661 6.58 6.53 0.7357 0.7386 11.87 421.918 0.945469 0.810772 
1.663 7.42 7.34 0.7210 0.7628 11.83 421.557 1.78876 0.976339 
1.665 4.98 4.90 0.7967 0.8261 11.81 421.197 2.63134 0.488399 
1.667 0.92 0.82 0.8394 0.9108 11.85 420.836 3.47319 -0.325555 
1.669 -2.06 -2.16 0.7870 0.7690 11.87 420.476 4.31432 -0.921813 
1.670 -2.44 -2.55 0.9266 0.9074 11.87 420.297 4.73462 -0.999753 
1.672 -0.70 -0.81 0.8745 0.8291 11.86 419.937 5.57467 -0.650704 
1.674 3.21 3.10 0.7529 0.7677 11.87 419.578 0.130824 0.130451 
1.676 6.66 6.58 0.7516 0.7173 11.87 419.219 0.969441 0.82457 
1.678 7.41 7.31 0.7476 0.7465 11.82 418.86 1.80734 0.972154 
1.680 4.94 4.83 0.7437 0.8078 11.81 418.502 2.64452 0.476852 
1.682 0.88 0.80 0.9038 0.8022 11.84 418.144 3.48099 -0.332918 
1.684 -2.06 -2.17 0.8697 0.9351 11.87 417.786 4.31674 -0.922747 
1.685 -2.44 -2.55 0.8865 0.7645 11.86 417.607 4.73435 -0.999759 
1.687 -0.72 -0.83 0.7861 0.7277 11.86 417.25 5.56903 -0.654982 
1.689 3.15 3.04 0.7074 0.8016 11.87 416.893 0.119805 0.119519 
1.691 6.63 6.52 0.7012 0.7292 11.86 416.536 0.953056 0.815189 
1.693 7.44 7.33 0.7299 0.7590 11.82 416.18 1.78559 0.97702 
1.695 5.06 4.95 0.7975 0.8303 11.81 415.824 2.61742 0.500497 
1.697 1.04 0.94 0.8617 0.8713 11.84 415.468 3.44853 -0.302144 
1.699 -1.98 -2.09 0.9378 0.8648 11.87 415.113 4.27894 -0.907521 
1.701 -2.06 -2.17 0.7661 0.8030 11.86 414.758 5.10863 -0.922519 
1.702 -0.89 -1.00 0.8420 0.7846 11.86 414.58 5.52321 -0.688904 
1.704 2.90 2.79 0.8440 0.7196 11.87 414.225 0.0686518 0.0685979 
1.706 6.45 6.36 0.7636 0.7046 11.87 413.871 0.896571 0.781191 
1.708 7.50 7.39 0.7377 0.7372 11.82 413.517 1.72378 0.988321 
1.710 5.33 5.25 0.9242 0.7526 11.80 413.163 2.55029 0.557447 
1.712 1.38 1.30 0.8582 0.8162 11.84 412.81 3.37608 -0.232346 
1.714 -1.83 -1.89 0.9306 0.9221 11.86 412.457 4.20117 -0.872149 
1.716 -2.21 -2.30 0.9216 0.8962 11.86 412.104 5.02555 -0.951363 
1.718 0.44 0.36 0.8448 0.8339 11.86 411.751 5.84923 -0.42046 
1.720 4.42 4.37 0.8165 0.7262 11.87 411.399 0.389022 0.379283 
1.721 6.12 6.06 0.6006 0.7268 11.87 411.223 0.800244 0.717526 
1.723 7.53 7.45 0.7108 0.7473 11.83 410.871 1.62216 0.998681 
1.725 5.74 5.69 0.7798 0.7575 11.80 410.519 2.44338 0.642852 
1.727 1.93 1.85 0.8479 0.8568 11.83 410.168 3.26389 -0.121992 
1.729 -1.52 -1.57 0.7669 0.8987 11.87 409.817 4.0837 -0.808799 
1.731 -2.38 -2.44 0.7440 0.8998 11.85 409.467 4.90281 -0.981925 
1.733 -0.14 -0.19 0.8202 0.8352 11.85 409.116 5.72122 -0.532853 
1.735 3.79 3.74 0.6997 0.7570 11.86 408.766 0.255738 0.25296 
1.737 6.95 6.84 0.6954 0.7371 11.86 408.417 1.07275 0.878516 
1.739 7.29 7.21 0.7299 0.7317 11.82 408.067 1.88906 0.949781 
1.741 4.64 4.59 0.8011 0.8780 11.80 407.718 2.70467 0.423156 
1.743 0.69 0.61 0.8869 0.8984 11.84 407.369 3.51958 -0.369051 
1.745 -2.12 -2.17 0.7551 0.9031 11.86 407.021 4.3338 -0.929186 
1.746 -2.47 -2.52 0.8633 0.8366 11.86 406.847 4.74064 -0.999601 
1.748 -0.81 -0.86 0.8779 0.7948 11.85 406.499 5.55381 -0.666401 
1.750 2.94 2.89 0.7867 0.7316 11.88 406.151 0.0831038 0.0830082 
1.752 6.43 6.37 0.7856 0.7072 11.87 405.803 0.894884 0.780137 
1.754 7.48 7.43 0.7446 0.6190 11.82 405.456 1.70597 0.990878 
1.756 5.45 5.40 0.7338 0.6785 11.80 405.109 2.51636 0.585284 
1.758 1.61 1.56 0.8712 0.7656 11.84 404.763 3.32606 -0.183424 
1.760 -1.66 -1.72 0.9082 0.8441 11.86 404.416 4.13507 -0.837928 
1.762 -2.34 -2.39 0.9104 0.9013 11.85 404.07 4.94338 -0.97344 
1.764 -0.01 -0.06 0.8484 0.7958 11.87 403.725 5.751 -0.507414 
1.766 3.88 3.83 0.7939 0.7167 11.86 403.379 0.27475 0.271306 
1.768 6.92 6.90 0.7876 0.6186 11.87 403.034 1.08099 0.882424 
1.770 7.28 7.23 0.7539 0.6833 11.82 402.689 1.88654 0.950565 
1.772 4.70 4.65 0.8242 0.7712 11.80 402.345 2.6914 0.435135 
1.774 0.78 0.76 0.8902 0.8558 11.84 402.001 3.49558 -0.346639 
1.776 -2.05 -2.10 0.9549 0.9143 11.87 401.657 4.29906 -0.91579 
1.778 -2.10 -2.15 0.8900 0.7890 11.85 401.313 5.10186 -0.925109 
1.779 -0.99 -1.04 0.6985 0.8596 11.85 401.142 5.503 -0.703409 
1.781 2.63 2.58 0.7605 0.7724 11.88 400.798 0.0215866 0.0215849 
1.783 6.19 6.14 0.6924 0.7473 11.87 400.455 0.822669 0.732964 
1.785 7.52 7.47 0.7145 0.7657 11.83 400.113 1.62307 0.998634 
1.787 5.82 5.77 0.7808 0.7972 11.81 399.771 2.42278 0.658493 
1.789 2.12 2.08 0.8547 0.8851 11.83 399.428 3.22181 -0.0801274 
1.791 -1.31 -1.39 0.8106 0.9237 11.87 399.087 4.02015 -0.769819 
1.793 -2.45 -2.50 0.7261 0.8776 11.85 398.745 4.81781 -0.994448 
1.795 -0.57 -0.62 0.8430 0.8199 11.86 398.404 5.61479 -0.619726 
1.797 3.16 3.11 0.6395 0.7400 11.88 398.063 0.127903 0.127555 
1.799 6.51 6.46 0.6796 0.6693 11.87 397.723 0.923519 0.797729 
1.801 7.47 7.42 0.7171 0.7194 11.82 397.383 1.71845 0.989118 
1.803 5.46 5.42 0.7920 0.8140 11.80 397.043 2.51271 0.588242 
1.805 1.70 1.66 0.8399 0.9043 11.83 396.703 3.30628 -0.163949 
1.807 -1.56 -1.61 0.8936 0.8959 11.87 396.363 4.09918 -0.817806 
1.809 -2.40 -2.44 0.8906 0.8849 11.85 396.024 4.8914 -0.98402 
1.811 -0.30 -0.35 0.7736 0.8336 11.85 395.686 5.68294 -0.564844 
1.813 3.47 3.42 0.7138 0.7463 11.87 395.347 0.190619 0.189466 
1.815 6.66 6.64 0.6774 0.7985 11.86 395.009 0.980805 0.830946 
1.817 7.42 7.38 0.7990 0.7655 11.82 394.671 1.77032 0.980162 
1.819 5.27 5.23 0.7713 0.7995 11.80 394.333 2.55915 0.550064 
1.821 1.49 1.47 0.8865 0.8389 11.83 393.996 3.34731 -0.204271 
1.823 -1.68 -1.70 0.8982 0.8746 11.87 393.659 4.1348 -0.83778 
1.825 -2.37 -2.41 0.8951 0.8721 11.86 393.322 4.92161 -0.978193 
1.827 -0.20 -0.24 0.7777 0.8187 11.85 392.986 5.70775 -0.544201 
1.829 3.55 3.53 0.7017 0.8020 11.88 392.649 0.210031 0.20849 
1.831 6.71 6.67 0.6968 0.7309 11.87 392.313 0.994825 0.838664 
1.833 7.40 7.38 0.7346 0.7286 11.81 391.978 1.77895 0.978414 
1.835 5.24 5.23 0.8316 0.8269 11.80 391.642 2.5624 0.547348 
1.837 1.51 1.47 0.8862 0.9054 11.84 391.307 3.34518 -0.202187 
1.839 -1.65 -1.69 0.9332 0.9240 11.87 390.973 4.1273 -0.833661 
1.841 -2.38 -2.42 0.8819 0.8757 11.86 390.638 4.90874 -0.980785 
1.843 -0.28 -0.32 0.7602 0.8136 11.85 390.304 5.68951 -0.559408 
1.845 3.45 3.41 0.7677 0.7022 11.88 389.97 0.186435 0.185357 
1.847 6.63 6.59 0.7296 0.6760 11.86 389.636 0.965875 0.822547 
1.849 7.44 7.40 0.7248 0.7415 11.82 389.303 1.74465 0.984926 
1.851 5.42 5.38 0.7340 0.7347 11.79 388.97 2.52275 0.58009 
1.853 1.74 1.68 0.7908 0.9141 11.83 388.637 3.30019 -0.157938 
1.855 -1.50 -1.54 0.9076 0.8964 11.87 388.305 4.07697 -0.804823 
1.857 -2.43 -2.47 0.8773 0.8735 11.85 387.972 4.85308 -0.990119 
1.859 -0.51 -0.58 0.8247 0.8294 11.85 387.641 5.62853 -0.608888 
1.861 3.12 3.08 0.7964 0.8141 11.87 387.309 0.120125 0.119837 
1.863 6.43 6.37 0.6965 0.7983 11.87 386.978 0.894246 0.779737 
1.865 7.50 7.46 0.7334 0.7275 11.83 386.646 1.6677 0.995308 
1.867 5.76 5.69 0.6657 0.7536 11.80 386.316 2.4405 0.645052 
1.869 2.16 2.12 0.8764 0.8309 11.83 385.985 3.21264 -0.0709848 
1.871 -1.20 -1.26 0.8483 0.8851 11.87 385.655 3.98411 -0.746323 
1.873 -2.48 -2.52 0.9228 0.8860 11.86 385.325 4.75493 -0.999095 
1.875 -0.92 -0.96 0.8255 0.8383 11.85 384.995 5.52508 -0.687545 
1.877 2.59 2.52 0.7341 0.8123 11.87 384.666 0.0113937 0.0113935 
1.880 7.12 7.06 0.6969 0.7244 11.85 384.172 1.1644 0.918553 
1.882 7.21 7.14 0.7441 0.7824 11.81 383.844 1.93226 0.935381 
1.884 4.67 4.61 0.8257 0.8201 11.80 383.515 2.69945 0.427876 
1.886 0.94 0.87 0.8976 0.9038 11.85 383.187 3.46599 -0.318737 
1.888 -1.90 -1.97 0.9071 0.7838 11.87 382.859 4.23187 -0.886756 
1.890 -2.27 -2.33 0.8829 0.7715 11.85 382.532 4.9971 -0.959743 
1.892 0.04 -0.02 0.7595 0.7424 11.86 382.205 5.76167 -0.498192 
1.894 3.73 3.67 0.6936 0.6823 11.88 381.878 0.242407 0.24004 
1.896 6.75 6.69 0.7307 0.7208 11.86 381.551 1.00567 0.844522 
1.898 7.43 7.37 0.8024 0.7645 11.82 381.225 1.76828 0.980563 
1.900 5.42 5.32 0.7330 0.8447 11.81 380.898 2.53024 0.573972 
1.902 1.79 1.72 0.8433 0.9024 11.84 380.573 3.29155 -0.149398 
1.904 -1.40 -1.50 0.9137 0.8600 11.86 380.247 4.05221 -0.789882 
1.906 -2.43 -2.52 0.8838 0.9508 11.86 379.922 4.81221 -0.995022 
1.908 -0.72 -0.81 0.8281 0.6840 11.85 379.597 5.57157 -0.653058 
1.910 2.78 2.69 0.7729 0.6281 11.87 379.272 0.0470902 0.0470728 
1.912 6.14 6.07 0.7922 0.6737 11.87 378.947 0.805147 0.720933 
1.915 7.21 7.11 0.7354 0.7542 11.82 378.461 1.94102 0.932248 
1.917 4.70 4.60 0.8184 0.7922 11.81 378.137 2.69745 0.429681 
1.919 1.01 0.92 0.8860 0.8676 11.85 377.814 3.45324 -0.30663 
1.921 -1.83 -1.93 0.7817 0.8972 11.86 377.491 4.20839 -0.875656 
1.923 -2.30 -2.39 0.7283 0.8784 11.85 377.168 4.96288 -0.96879 
1.925 -0.14 -0.23 0.6697 0.8604 11.85 376.845 5.71673 -0.536641 
1.927 3.48 3.38 0.7124 0.7398 11.87 376.523 0.186755 0.185671 
1.929 6.58 6.49 0.6770 0.6923 11.87 376.201 0.939317 0.807155 
1.931 7.53 7.40 0.7238 0.7378 11.83 375.879 1.69124 0.992756 
1.933 5.76 5.67 0.8166 0.6654 11.80 375.557 2.44251 0.643516 
1.935 2.29 2.19 0.8696 0.8098 11.83 375.236 3.19314 -0.0515267 
1.937 -1.04 -1.14 0.9162 0.8355 11.86 374.915 3.94313 -0.718428 
1.940 -2.14 -2.24 0.8265 0.7945 11.85 374.434 5.06691 -0.937811 
1.942 0.29 0.20 0.8073 0.7287 11.86 374.113 5.8153 -0.450999 
1.944 3.93 3.83 0.7147 0.7400 11.87 373.793 0.279862 0.276223 
1.946 6.84 6.72 0.6007 0.7180 11.86 373.474 1.02697 0.855735 
1.948 7.45 7.35 0.6280 0.7749 11.82 373.154 1.77344 0.979539 
1.950 5.46 5.37 0.6849 0.8785 11.80 372.835 2.51927 0.582927 
1.952 1.95 1.82 0.8674 0.8882 11.83 372.516 3.26446 -0.122555 
1.954 -1.26 -1.36 0.9004 0.9194 11.87 372.197 4.00901 -0.762661 
1.956 -2.45 -2.54 0.8746 0.7854 11.86 371.879 4.75293 -0.999178 
1.959 0.54 0.42 0.7437 0.8066 11.86 371.402 5.86761 -0.403718 
1.961 4.15 4.05 0.6794 0.7050 11.88 371.084 0.326749 0.320966 
1.963 6.93 6.83 0.7564 0.6228 11.86 370.766 1.06844 0.876451 
1.965 7.41 7.31 0.7590 0.6852 11.82 370.449 1.8095 0.971646 
1.967 5.34 5.24 0.8435 0.7863 11.81 370.132 2.54992 0.55775 
1.969 1.81 1.71 0.8850 0.8797 11.84 369.816 3.28971 -0.147576 
1.971 -1.33 -1.43 0.9153 0.7640 11.87 369.499 4.02887 -0.775353 
1.973 -2.44 -2.54 0.8937 0.8030 11.86 369.183 4.76739 -0.998488 
1.975 -0.96 -1.06 0.7924 0.7941 11.85 368.867 5.50528 -0.701787 
1.978 4.16 4.06 0.6859 0.7347 11.88 368.394 0.327753 0.321916 
1.980 6.92 6.82 0.6670 0.6835 11.86 368.079 1.06407 0.874337 
1.982 7.43 7.30 0.7184 0.7968 11.82 367.764 1.79975 0.973904 
1.984 5.42 5.29 0.7975 0.8621 11.82 367.449 2.53481 0.570229 
1.986 1.91 1.81 0.7710 0.8647 11.84 367.135 3.26924 -0.127296 
1.988 -1.24 -1.34 0.7712 0.9023 11.87 366.821 4.00303 -0.758782 
1.990 -2.45 -2.55 0.9186 0.8736 11.86 366.507 4.7362 -0.999716 
1.993 0.38 0.28 0.7529 0.7628 11.86 366.037 5.83478 -0.433525 
1.995 3.95 3.85 0.7693 0.5895 11.88 365.724 0.283203 0.279433 
1.997 6.78 6.71 0.7934 0.7061 11.86 365.411 1.01418 0.849048 
1.999 7.48 7.37 0.7295 0.7553 11.82 365.098 1.74453 0.984946 
2.001 5.65 5.54 0.8043 0.8097 11.81 364.786 2.47426 0.618892 
2.003 2.23 2.15 0.8523 0.8724 11.84 364.474 3.20336 -0.0617322 
2.005 -1.00 -1.10 0.9388 0.7616 11.86 364.162 3.93184 -0.71053 
2.008 -2.22 -2.30 0.7631 0.8826 11.85 363.695 5.02339 -0.952026 
2.010 0.01 -0.09 0.6911 0.8105 11.86 363.383 5.75032 -0.508007 
2.012 3.51 3.41 0.6041 0.7201 11.87 363.073 0.193431 0.192227 
2.014 6.51 6.44 0.7598 0.6890 11.86 362.762 0.91911 0.795062 
2.016 7.54 7.43 0.7117 0.7301 11.83 362.452 1.64417 0.99731 
2.018 6.03 5.95 0.7900 0.7994 11.81 362.141 2.36861 0.698276 
2.021 1.00 0.92 0.9303 0.9073 11.85 361.677 3.4541 -0.307447 
2.023 -1.76 -1.84 0.8916 0.9406 11.87 361.367 4.17699 -0.860066 
2.025 -2.37 -2.45 0.8794 0.7675 11.86 361.058 4.89926 -0.98259 
2.027 -0.54 -0.61 0.7717 0.8525 11.85 360.749 5.62092 -0.614908 
2.029 2.83 2.75 0.7783 0.7237 11.87 360.441 0.0587661 0.0587322 
2.032 7.09 6.99 0.6864 0.6932 11.86 359.978 1.13916 0.908284 
2.034 7.33 7.25 0.7332 0.6373 11.82 359.67 1.85866 0.958853 
2.036 5.21 5.13 0.8482 0.7433 11.81 359.363 2.57754 0.534618 
2.038 1.76 1.71 0.9197 0.8398 11.84 359.055 3.2958 -0.153598 
2.040 -1.29 -1.37 0.8672 0.8963 11.87 358.748 4.01345 -0.765525 
2.042 -2.46 -2.54 0.7782 0.8992 11.86 358.441 4.73049 -0.999836 
2.045 0.22 0.17 0.7492 0.7935 11.86 357.981 5.80489 -0.460268 
2.047 3.71 3.63 0.7153 0.7170 11.87 357.675 0.237207 0.234988 
2.049 6.61 6.53 0.6902 0.7164 11.86 357.369 0.952097 0.814634 
2.051 7.52 7.44 0.7289 0.7571 11.82 357.063 1.66638 0.995436 
2.053 5.99 5.91 0.7862 0.7941 11.81 356.758 2.38004 0.690043 
2.056 1.02 0.94 0.8970 0.7755 11.85 356.3 3.4494 -0.302972 
2.058 -1.73 -1.79 0.7932 0.7860 11.87 355.995 4.16154 -0.852083 
2.060 -2.40 -2.47 0.7317 0.8224 11.86 355.691 4.87308 -0.987117 
2.062 -0.68 -0.76 0.8505 0.7909 11.85 355.386 5.584 -0.643592 
2.064 2.58 2.53 0.6432 0.6917 11.87 355.082 0.0111334 0.0111331 
2.067 6.94 6.86 0.6996 0.6811 11.86 354.627 1.07547 0.879813 
2.069 7.41 7.36 0.7553 0.7356 11.82 354.323 1.78427 0.977302 
2.071 5.55 5.50 0.7479 0.7347 11.81 354.02 2.49246 0.604497 
2.073 2.25 2.17 0.8848 0.8783 11.84 353.717 3.20004 -0.0584189 
2.076 -1.97 -2.02 0.8871 0.9796 11.87 353.263 4.26029 -0.899532 
2.078 -2.30 -2.38 0.7812 0.7958 11.86 352.961 4.96636 -0.967922 
2.080 -0.33 -0.41 0.6776 0.7816 11.86 352.659 5.67183 -0.573977 
2.082 2.99 2.94 0.6127 0.6406 11.88 352.358 0.0935122 0.093376 
2.084 6.12 6.04 0.6730 0.6276 11.87 352.056 0.797775 0.715804 
2.087 7.34 7.26 0.7561 0.7459 11.81 351.604 1.85304 0.960433 
2.089 5.30 5.22 0.7333 0.8024 11.81 351.304 2.5558 0.552862 
2.091 1.96 1.88 0.8309 0.8798 11.84 351.003 3.25795 -0.116098 
2.093 -1.11 -1.19 0.8494 0.9259 11.87 350.703 3.95951 -0.729723 
2.096 -2.24 -2.32 0.8544 0.7884 11.85 350.253 5.01072 -0.955829 
2.098 -0.17 -0.25 0.7293 0.7628 11.86 349.953 5.71077 -0.541661 
2.100 3.17 3.10 0.6927 0.7956 11.87 349.654 0.127045 0.126703 
2.102 6.21 6.14 0.6675 0.5754 11.86 349.355 0.825904 0.735161 
2.105 7.31 7.23 0.6672 0.7540 11.81 348.906 1.87307 0.954662 
2.107 5.24 5.16 0.7142 0.7564 11.81 348.608 2.57044 0.540606 
2.109 1.91 1.83 0.7548 0.8417 11.85 348.31 3.2672 -0.125281 
2.111 -1.12 -1.20 0.9428 0.8911 11.87 348.012 3.96338 -0.732361 
2.114 -2.25 -2.32 0.8561 0.8770 11.86 347.565 5.00652 -0.957055 
2.116 -0.21 -0.29 0.7548 0.6542 11.86 347.268 5.7012 -0.549681 
2.118 3.10 3.02 0.6817 0.6069 11.87 346.971 0.112107 0.111872 
2.120 6.14 6.07 0.6885 0.7040 11.87 346.674 0.805603 0.721248 
2.123 7.37 7.26 0.7152 0.7493 11.81 346.229 1.84473 0.962713 
2.125 5.39 5.29 0.8004 0.8487 11.80 345.933 2.53675 0.568634 
2.127 2.11 2.03 0.8460 0.8051 11.84 345.637 3.22817 -0.0864699 
2.130 -1.97 -2.04 0.9334 0.7898 11.87 345.193 4.26419 -0.901231 
2.132 -2.31 -2.39 0.8910 0.7712 11.85 344.898 4.95414 -0.970921 
2.134 -0.45 -0.52 0.7595 0.7347 11.86 344.603 5.64349 -0.59695 
2.136 2.80 2.69 0.7118 0.6704 11.88 344.308 0.0490705 0.0490508 
2.139 6.96 6.86 0.6642 0.6906 11.85 343.866 1.08111 0.882481 
2.141 7.44 7.36 0.7184 0.6187 11.81 343.572 1.7684 0.980539 
2.143 5.71 5.63 0.8002 0.6851 11.80 343.278 2.45511 0.633823 
2.146 0.87 0.77 0.9024 0.9130 11.85 342.838 3.48406 -0.335813 
2.148 -1.73 -1.83 0.9195 0.9828 11.87 342.545 4.1693 -0.856115 
2.150 -2.40 -2.50 0.9130 0.7313 11.86 342.252 4.85395 -0.989997 
2.152 -0.84 -0.94 0.8150 0.6797 11.86 341.959 5.53801 -0.678101 
2.155 3.92 3.84 0.6072 0.7046 11.88 341.52 0.279823 0.276186 
2.157 6.66 6.55 0.6748 0.6853 11.86 341.228 0.962425 0.82058 
2.159 7.53 7.45 0.7145 0.6738 11.82 340.936 1.64444 0.997289 
2.162 4.83 4.75 0.7956 0.8018 11.81 340.498 2.66638 0.457532 
2.164 1.53 1.43 0.8345 0.9029 11.85 340.207 3.34694 -0.203903 
2.166 -1.33 -1.41 0.9479 0.9420 11.87 339.916 4.02691 -0.774118 
2.169 -2.17 -2.28 0.8581 0.8456 11.86 339.48 5.04579 -0.944935 
2.171 -0.11 -0.19 0.7287 0.7799 11.86 339.19 5.72431 -0.53023 
2.173 3.15 3.04 0.6734 0.7080 11.88 338.899 0.119073 0.118791 
2.175 6.11 6.03 0.6533 0.5800 11.87 338.609 0.796436 0.714869 
2.178 7.41 7.30 0.6500 0.7814 11.81 338.175 1.8114 0.971195 
2.180 5.60 5.49 0.7034 0.8377 11.80 337.886 2.48731 0.608589 
2.182 2.45 2.34 0.7475 0.8688 11.83 337.597 3.16265 -0.0210552 
2.185 -1.74 -1.85 0.9309 0.9038 11.86 337.163 4.17457 -0.858829 
2.187 -2.41 -2.49 0.7542 0.8885 11.86 336.875 4.84847 -0.990756 
2.189 -0.91 -0.99 0.6717 0.7824 11.85 336.587 5.52178 -0.689936 
2.192 3.78 3.67 0.7018 0.7029 11.88 336.155 0.247496 0.244977 
2.194 6.53 6.42 0.7027 0.7038 11.86 335.867 0.919375 0.795223 
2.196 7.54 7.46 0.6818 0.7063 11.82 335.58 1.59068 0.999802 
2.199 5.13 5.05 0.8463 0.8211 11.80 335.149 2.59656 0.518448 
2.201 1.93 1.82 0.9189 0.7782 11.84 334.863 3.26643 -0.124509 
2.203 -1.02 -1.11 0.9438 0.7985 11.87 334.576 3.93572 -0.713253 
2.206 -2.32 -2.43 0.8032 0.8875 11.85 334.147 4.93859 -0.974525 
2.208 -0.59 -0.67 0.8294 0.7889 11.85 333.861 5.60646 -0.626246 
2.211 4.13 4.05 0.6730 0.7270 11.88 333.433 0.323998 0.318359 
2.213 6.72 6.64 0.7462 0.6959 11.86 333.147 0.990435 0.836265 
2.215 7.51 7.45 0.8946 0.7399 11.81 332.862 1.6563 0.996347 
2.218 4.87 4.82 0.8171 0.7799 11.80 332.435 2.65404 0.468469 
2.220 1.65 1.59 0.8731 0.8386 11.84 332.151 3.31848 -0.175966 
2.222 -1.20 -1.25 0.8959 0.9352 11.87 331.867 3.98236 -0.745152 
2.225 -2.30 -2.35 0.8900 0.7431 11.85 331.441 4.9771 -0.965167 
2.227 -0.47 -0.53 0.7747 0.6927 11.86 331.158 5.63956 -0.600098 
2.229 2.62 2.56 0.7017 0.6399 11.87 330.874 0.0182654 0.0182644 
2.232 6.76 6.71 0.7506 0.6862 11.86 330.45 1.01004 0.846852 
2.234 7.53 7.42 0.7039 0.9851 11.82 330.167 1.67051 0.995032 
2.237 4.87 4.76 0.7689 0.8449 11.81 329.743 2.66017 0.463043 
2.239 1.66 1.58 0.9272 0.9194 11.84 329.461 3.31923 -0.176706 
2.241 -1.16 -1.26 0.8981 0.8753 11.87 329.179 3.97773 -0.74206 
2.244 -2.30 -2.38 0.8731 0.8647 11.84 328.757 4.96442 -0.968407 
2.246 -0.53 -0.61 0.7913 0.7846 11.86 328.476 5.62152 -0.614435 
2.249 4.14 4.03 0.7664 0.5931 11.88 328.054 0.322915 0.317332 
2.251 6.69 6.61 0.7967 0.7021 11.86 327.774 0.978603 0.829718 
2.253 7.54 7.44 0.7266 0.7581 11.81 327.493 1.63373 0.99802 
2.256 5.05 4.97 0.8045 0.7737 11.80 327.073 2.61537 0.502272 
2.258 1.90 1.82 0.8510 0.8857 11.84 326.793 3.2691 -0.127157 
2.261 -1.93 -2.01 0.9501 0.7651 11.87 326.374 4.24864 -0.89438 
2.263 -2.37 -2.45 0.8818 0.7290 11.86 326.095 4.90097 -0.982272 
2.265 -0.80 -0.88 0.7712 0.6810 11.86 325.816 5.55274 -0.667204 
2.268 3.76 3.68 0.6626 0.6924 11.88 325.398 0.246162 0.243684 
2.270 6.46 6.35 0.6627 0.6772 11.85 325.119 0.89654 0.781172 
2.273 7.32 7.24 0.7520 0.7990 11.80 324.702 1.87106 0.955257 
2.275 5.45 5.37 0.7799 0.8280 11.79 324.424 2.52005 0.582289 
2.277 2.42 2.31 0.8285 0.8972 11.83 324.147 3.16848 -0.0268878 
2.280 -1.66 -1.74 0.9624 0.9029 11.86 323.731 4.14009 -0.840659 
2.282 -2.44 -2.53 0.8325 0.8561 11.85 323.454 4.78714 -0.997208 
2.285 0.03 -0.05 0.7468 0.6751 11.85 323.039 5.75667 -0.502523 
2.287 3.15 3.04 0.7618 0.7180 11.87 322.763 0.119149 0.118867 
2.290 6.98 6.87 0.6775 0.5933 11.85 322.349 1.08661 0.885053 
2.292 7.49 7.38 0.7285 0.6546 11.80 322.073 1.73089 0.987212 
2.294 6.02 5.92 0.8077 0.8727 11.79 321.797 2.37462 0.693956 
2.297 1.57 1.46 0.8911 0.9315 11.84 321.384 3.33919 -0.196314 
2.299 -1.17 -1.28 0.9979 0.9484 11.86 321.109 3.98155 -0.744612 
2.302 -2.32 -2.41 0.7221 0.8201 11.85 320.697 4.94405 -0.973286 
2.304 -0.67 -0.76 0.7833 0.7842 11.85 320.423 5.58503 -0.642803 
2.307 3.84 3.75 0.7145 0.6616 11.87 320.012 0.262295 0.259298 
2.309 6.48 6.37 0.6841 0.6576 11.86 319.738 0.901908 0.784512 
2.312 7.33 7.25 0.7562 0.7592 11.80 319.328 1.8603 0.958385 
2.314 5.55 5.44 0.7861 0.8629 11.79 319.055 2.49855 0.599635 
2.317 1.00 0.92 0.9203 0.9000 11.85 318.645 3.45489 -0.308201 
2.319 -1.54 -1.59 0.9595 0.9371 11.86 318.373 4.09178 -0.813522 
2.321 -2.46 -2.54 0.9374 0.9175 11.85 318.1 4.72811 -0.999876 
2.324 -0.29 -0.37 0.6711 0.7643 11.84 317.692 5.6816 -0.565952 
2.326 2.69 2.64 0.5862 0.6323 11.89 317.42 0.0333888 0.0333826 
2.329 6.69 6.64 0.6834 0.6763 11.84 317.013 0.984836 0.833181 
2.331 7.54 7.45 0.6428 0.7269 11.81 316.742 1.61846 0.998865 
2.334 5.25 5.17 0.8642 0.8343 11.80 316.336 2.56787 0.542764 
2.336 2.23 2.18 0.9097 0.9121 11.84 316.065 3.20013 -0.0585077 
2.339 -1.70 -1.75 0.9463 0.9356 11.86 315.659 4.14752 -0.844657 
2.341 -2.46 -2.52 0.8893 0.8952 11.85 315.389 4.77843 -0.99782 
2.344 -0.14 -0.17 0.9343 0.6508 11.85 314.985 5.72379 -0.530673 
2.346 2.88 2.82 0.6530 0.5992 11.88 314.715 0.0701711 0.0701135 
2.349 6.77 6.72 0.5788 0.6790 11.85 314.311 1.01351 0.848693 
2.351 7.50 7.47 0.6134 0.6516 11.81 314.043 1.64173 0.997485 
2.354 5.16 5.14 0.8610 0.7903 11.80 313.64 2.58305 0.52995 
2.356 2.19 2.13 0.8996 0.8961 11.84 313.371 3.20993 -0.0682817 
2.359 -1.70 -1.75 0.8576 0.9408 11.87 312.969 4.14924 -0.845577 
2.361 -2.48 -2.50 0.8504 0.9187 11.85 312.702 4.77477 -0.998055 
2.364 -0.19 -0.21 0.7152 0.6830 11.86 312.3 5.71208 -0.540565 
2.366 2.79 2.74 0.6796 0.7751 11.87 312.033 0.0530907 0.0530658 
2.369 6.69 6.66 0.6141 0.5658 11.85 311.633 0.988389 0.835141 
2.371 7.52 7.47 0.6902 0.6251 11.81 311.366 1.61126 0.999182 
2.374 5.32 5.30 0.7579 0.8174 11.80 310.967 2.54455 0.562195 
2.376 2.39 2.37 0.8703 0.8848 11.83 310.701 3.16609 -0.0244937 
2.379 -1.57 -1.59 0.9026 0.9207 11.87 310.302 4.09739 -0.816776 
2.381 -2.48 -2.52 0.8289 0.8904 11.86 310.037 4.7176 -0.999986 
2.384 -0.45 -0.49 0.7518 0.6544 11.85 309.639 5.64691 -0.594201 
2.387 3.96 3.91 0.6868 0.6796 11.88 309.242 0.29185 0.287725 
2.389 6.47 6.42 0.6423 0.6059 11.86 308.977 0.909936 0.789465 
2.392 7.35 7.30 0.7608 0.7454 11.80 308.581 1.83607 0.96502 
2.394 5.70 5.65 0.7856 0.8498 11.80 308.317 2.45284 0.635575 
2.397 1.37 1.30 0.9194 0.8539 11.85 307.921 3.377 -0.233237 
2.399 -1.24 -1.28 0.7779 0.9067 11.87 307.658 3.99244 -0.751842 
2.402 -2.37 -2.42 0.8739 0.8390 11.85 307.263 4.91463 -0.979619 
2.404 -0.89 -0.96 0.8024 0.8036 11.85 307 5.52876 -0.684871 
2.407 3.35 3.30 0.5763 0.6748 11.88 306.606 0.165785 0.165027 
2.410 6.94 6.90 0.5645 0.7353 11.85 306.213 1.08482 0.884218 
2.412 7.48 7.44 0.7526 0.7221 11.81 305.951 1.69685 0.992066 
2.415 5.05 4.98 0.8241 0.9132 11.80 305.558 2.61392 0.503527 
2.417 2.11 2.06 0.9106 0.7710 11.84 305.297 3.22464 -0.0829518 
2.420 -1.68 -1.73 0.9059 0.9709 11.87 304.905 4.13975 -0.840472 
2.422 -2.47 -2.52 0.9402 0.8903 11.85 304.644 4.74917 -0.999324 
2.425 -0.39 -0.43 0.7870 0.7744 11.86 304.253 5.66232 -0.581742 
2.428 3.96 3.91 0.6618 0.6563 11.88 303.863 0.29111 0.287016 
2.430 6.45 6.38 0.5692 0.6559 11.86 303.603 0.898446 0.78236 
2.433 7.39 7.32 0.7450 0.7637 11.80 303.213 1.80848 0.971887 
2.435 5.86 5.79 0.7409 0.8681 11.81 302.954 2.41451 0.66469 
2.438 1.65 1.55 0.8896 0.9305 11.85 302.565 3.3226 -0.180019 
2.440 -0.97 -1.10 0.9063 0.9579 11.87 302.306 3.92734 -0.707354 
2.443 -2.41 -2.51 0.9013 0.8112 11.85 301.919 4.83348 -0.992677 
2.446 -0.04 -0.14 0.7679 0.7790 11.85 301.531 5.73846 -0.518179 
2.448 2.84 2.74 0.6841 0.7152 11.88 301.273 0.057955 0.0579225 
2.451 6.65 6.55 0.7087 0.6464 11.86 300.887 0.961002 0.819766 
2.454 7.34 7.24 0.7401 0.7522 11.81 300.501 1.86289 0.957643 
2.456 5.69 5.58 0.8535 0.7566 11.80 300.244 2.46351 0.627304 
2.459 1.45 1.35 0.8937 0.8716 11.85 299.858 3.36347 -0.220057 
2.461 -1.11 -1.21 0.9556 0.8879 11.87 299.602 3.9628 -0.731967 
2.464 -2.39 -2.50 0.8517 0.8989 11.85 299.217 4.86083 -0.989002 
2.467 0.04 -0.06 0.7148 0.7409 11.86 298.834 5.75772 -0.501617 
2.469 2.91 2.81 0.7788 0.6081 11.87 298.578 0.0718166 0.0717549 
2.472 6.67 6.56 0.6558 0.6664 11.85 298.195 0.966784 0.823063 
2.475 7.36 7.23 0.7594 0.7879 11.81 297.812 1.8606 0.958299 
2.477 5.73 5.60 0.7465 0.8345 11.81 297.557 2.45585 0.633251 
2.480 1.53 1.42 0.9414 0.8480 11.85 297.176 3.34775 -0.204705 
2.482 -1.03 -1.14 0.7965 0.9677 11.87 296.921 3.94172 -0.717448 
2.485 -2.41 -2.52 0.8920 0.7643 11.86 296.54 4.83173 -0.992888 
2.488 -0.11 -0.22 0.7128 0.7311 11.86 296.16 5.72059 -0.533386 
2.490 2.70 2.59 0.6257 0.7963 11.87 295.907 0.0293419 0.0293377 
2.493 6.53 6.40 0.5806 0.6720 11.86 295.527 0.916302 0.793356 
2.496 7.42 7.31 0.8152 0.6876 11.80 295.148 1.80212 0.973363 
2.498 5.96 5.85 0.7923 0.7765 11.80 294.895 2.39204 0.68131 
2.501 1.88 1.78 0.8599 0.8740 11.85 294.517 3.27597 -0.133974 
2.504 -1.70 -1.81 0.9033 0.8046 11.87 294.139 4.15877 -0.850625 
2.506 -2.46 -2.54 0.7437 0.7704 11.85 293.887 4.74667 -0.999413 
2.509 -0.51 -0.59 0.7592 0.7480 11.85 293.51 5.62757 -0.609644 
2.512 3.65 3.57 0.6523 0.7500 11.88 293.134 0.224167 0.222294 
2.514 6.16 6.08 0.6923 0.6735 11.86 292.883 0.810058 0.724328 
2.517 7.50 7.42 0.7126 0.6314 11.82 292.507 1.68796 0.993145 
2.520 5.25 5.20 0.7819 0.8126 11.81 292.132 2.56473 0.545399 
2.522 2.50 2.42 0.8895 0.8805 11.84 291.882 3.14862 -0.00702336 
2.525 -1.33 -1.39 0.9024 0.8736 11.87 291.508 4.02351 -0.771961 
2.528 -2.39 -2.44 0.8812 0.8248 11.85 291.134 4.89729 -0.982955 
2.531 0.07 0.02 0.7354 0.6941 11.86 290.76 5.76994 -0.491006 
2.533 2.87 2.81 0.6938 0.5676 11.88 290.511 0.0679027 0.0678506 
2.536 6.56 6.51 0.6593 0.6648 11.85 290.139 0.938691 0.806785 
2.539 7.38 7.33 0.7612 0.7321 11.81 289.766 1.80836 0.971914 
2.541 5.93 5.91 0.8243 0.8360 11.81 289.518 2.38752 0.684611 
2.544 1.94 1.92 0.8574 0.7460 11.85 289.147 3.25533 -0.113497 
2.547 -1.64 -1.67 0.9728 0.8945 11.87 288.776 4.12203 -0.830743 
2.550 -2.31 -2.31 0.8380 0.7946 11.86 288.405 4.98762 -0.962362 
2.552 -0.80 -0.79 0.7322 0.7331 11.86 288.159 5.56406 -0.658726 
2.555 3.22 3.22 0.5679 0.7465 11.87 287.789 0.144612 0.144109 
2.558 6.74 6.72 0.6745 0.6890 11.86 287.42 1.00724 0.845361 
2.560 7.50 7.50 0.6719 0.7412 11.82 287.174 1.58171 0.99994 
2.563 5.71 5.72 0.8453 0.8192 11.80 286.805 2.4425 0.643527 
2.566 1.70 1.71 0.8572 0.8826 11.85 286.437 3.30218 -0.159894 
2.569 -1.76 -1.75 0.9620 0.8090 11.86 286.07 4.16075 -0.851668 
2.571 -2.52 -2.48 0.8983 0.7915 11.85 285.825 4.73253 -0.999797 
2.574 -0.72 -0.68 0.7552 0.7555 11.85 285.458 5.58927 -0.639554 
2.577 3.29 3.33 0.6314 0.6986 11.88 285.092 0.161725 0.161021 
2.580 6.73 6.77 0.6327 0.5581 11.85 284.726 1.01627 0.85015 
2.582 7.48 7.52 0.6964 0.5986 11.82 284.483 1.58536 0.999894 
2.585 5.73 5.74 0.7743 0.8197 11.80 284.118 2.43808 0.646903 
2.588 1.74 1.78 0.9185 0.9361 11.85 283.753 3.2897 -0.147567 
2.591 -1.73 -1.68 0.9912 0.9227 11.86 283.389 4.14023 -0.840735 
2.594 -2.33 -2.29 0.6915 0.7683 11.85 283.026 4.98967 -0.961803 
2.596 -0.85 -0.80 0.7833 0.7297 11.86 282.784 5.55536 -0.665247 
2.599 3.07 3.12 0.6488 0.6254 11.88 282.421 0.1198 0.119514 
2.602 6.59 6.64 0.7927 0.6908 11.85 282.058 0.966338 0.82281 
2.605 7.33 7.38 0.7215 0.6383 11.80 281.696 1.81179 0.971102 
2.607 5.94 6.00 0.8065 0.7021 11.80 281.455 2.37482 0.693815 
2.610 2.09 2.14 0.8944 0.8893 11.84 281.094 3.21846 -0.076796 
2.613 -1.49 -1.46 0.8625 0.9137 11.87 280.734 4.06103 -0.795258 
2.616 -2.44 -2.38 0.7971 0.7066 11.86 280.374 4.90251 -0.981982 
2.619 -0.09 -0.06 0.5908 0.7619 11.85 280.014 5.74291 -0.514374 
2.621 2.58 2.61 0.6396 0.6675 11.87 279.774 0.0193903 0.0193891 
2.624 6.27 6.30 0.5831 0.6410 11.86 279.415 0.857995 0.756533 
2.627 7.44 7.48 0.7259 0.7567 11.81 279.057 1.69552 0.992232 
2.630 5.34 5.38 0.8292 0.7840 11.81 278.699 2.53198 0.572552 
2.633 1.36 1.40 0.9029 0.7971 11.85 278.341 3.36736 -0.223853 
2.636 -1.87 -1.86 0.8655 0.9268 11.87 277.984 4.20167 -0.872392 
2.638 -2.51 -2.48 0.8063 0.8886 11.85 277.746 4.75728 -0.998993 
2.641 -0.70 -0.69 0.7914 0.7396 11.86 277.39 5.58981 -0.63914 
2.644 3.18 3.19 0.6267 0.7215 11.88 277.034 0.138077 0.137639 
2.647 6.61 6.63 0.7150 0.6895 11.85 276.679 0.968468 0.824019 
2.650 7.37 7.38 0.7454 0.7253 11.80 276.324 1.79779 0.974346 
2.653 4.97 4.96 0.8538 0.8729 11.81 275.969 2.62606 0.493002 
2.655 2.33 2.31 0.7919 0.9119 11.84 275.733 3.17764 -0.0360393 
2.658 -1.29 -1.30 0.9056 0.9129 11.87 275.379 4.00413 -0.759496 
2.661 -2.45 -2.48 0.7840 0.8535 11.86 275.026 4.82956 -0.993143 
2.664 -0.44 -0.45 0.7803 0.8189 11.86 274.673 5.65393 -0.58854 
2.667 3.47 3.46 0.6130 0.6762 11.87 274.321 0.194062 0.192847 
2.670 6.77 6.73 0.6188 0.6108 11.85 273.969 1.01632 0.850176 
2.673 7.34 7.30 0.7492 0.7463 11.80 273.617 1.83752 0.964639 
2.675 5.95 5.92 0.7823 0.8196 11.80 273.383 2.38441 0.686879 
2.678 2.21 2.17 0.9054 0.7814 11.84 273.032 3.20385 -0.0622207 
2.681 -1.34 -1.37 0.8740 0.9585 11.87 272.682 4.02225 -0.771157 
2.684 -2.43 -2.49 0.7913 0.8468 11.86 272.332 4.8396 -0.99192 
2.687 -0.40 -0.47 0.7451 0.6162 11.86 271.983 5.65589 -0.586954 
2.690 3.47 3.40 0.6092 0.6457 11.86 271.634 0.187958 0.186853 
2.693 6.76 6.67 0.6196 0.7341 11.85 271.285 1.00216 0.842637 
2.696 7.38 7.32 0.7622 0.7832 11.79 270.937 1.81532 0.970252 
2.698 6.07 6.00 0.8428 0.8375 11.79 270.705 2.35685 0.706644 
2.701 2.41 2.32 0.8876 0.9123 11.84 270.358 3.16827 -0.0266741 
2.704 -1.18 -1.25 0.9225 0.7727 11.87 270.011 3.97865 -0.742676 
2.707 -2.44 -2.53 0.8419 0.8664 11.86 269.665 4.78799 -0.997144 
2.710 -0.62 -0.72 0.7161 0.7262 11.85 269.319 5.59629 -0.634137 
2.713 3.15 3.05 0.6173 0.7973 11.87 268.973 0.120373 0.120082 
2.716 6.56 6.43 0.6414 0.6753 11.85 268.628 0.926602 0.799584 
2.719 7.48 7.39 0.6204 0.6740 11.80 268.283 1.7318 0.987067 
2.722 5.39 5.30 0.8310 0.7724 11.80 267.939 2.53596 0.569283 
2.725 1.57 1.47 0.8832 0.8937 11.85 267.596 3.33909 -0.196215 
2.728 -1.66 -1.76 0.7592 0.9206 11.87 267.252 4.14119 -0.841253 
2.731 -2.32 -2.42 0.7999 0.7641 11.85 266.909 4.94226 -0.973696 
2.734 -0.02 -0.12 0.6703 0.7432 11.86 266.567 5.7423 -0.514893 
2.737 3.83 3.73 0.6416 0.5557 11.87 266.225 0.258134 0.255276 
2.739 6.10 6.00 0.5782 0.6600 11.86 265.997 0.790242 0.710523 
2.742 7.55 7.45 0.7274 0.6092 11.80 265.656 1.58755 0.99986 
2.745 5.99 5.88 0.8417 0.7972 11.79 265.315 2.38384 0.687294 
2.748 2.36 2.26 0.8964 0.8568 11.84 264.975 3.1791 -0.0374981 
2.751 -1.14 -1.25 0.7817 0.9185 11.87 264.635 3.97334 -0.739112 
2.754 -2.44 -2.54 0.8687 0.7798 11.85 264.295 4.76657 -0.998533 
2.757 -0.76 -0.87 0.7434 0.7498 11.86 263.956 5.55877 -0.662694 
2.760 2.89 2.78 0.6566 0.7104 11.87 263.617 0.0667798 0.0667302 
2.763 6.32 6.24 0.6875 0.5332 11.85 263.279 0.856955 0.755853 
2.766 7.54 7.43 0.7164 0.7663 11.80 262.941 1.64612 0.997165 
2.769 5.80 5.69 0.7821 0.7740 11.78 262.604 2.43427 0.649804 
2.772 2.14 2.06 0.8690 0.8835 11.84 262.267 3.2214 -0.0797258 
2.775 -1.27 -1.35 0.9350 0.9081 11.87 261.931 4.00753 -0.761704 
2.778 -2.44 -2.52 0.7194 0.8532 11.84 261.594 4.79265 -0.996781 
2.781 -0.70 -0.79 0.7348 0.6987 11.86 261.259 5.57676 -0.649117 
2.784 2.92 2.84 0.6227 0.6779 11.87 260.924 0.0766827 0.0766076 
2.787 6.33 6.24 0.6208 0.6620 11.85 260.589 0.858784 0.757049 
2.790 7.53 7.45 0.7317 0.6309 11.80 260.254 1.63988 0.997615 
2.793 5.83 5.77 0.7958 0.7930 11.79 259.921 2.41998 0.660598 
2.796 2.25 2.17 0.8234 0.8484 11.84 259.587 3.19907 -0.0574476 
2.799 -1.18 -1.24 0.8640 0.8858 11.85 259.254 3.97717 -0.741682 
2.802 -2.47 -2.52 0.8636 0.7617 11.85 258.921 4.75426 -0.999123 
2.805 -0.88 -0.96 0.6272 0.7258 11.84 258.589 5.53036 -0.683701 
2.808 2.64 2.58 0.6494 0.6547 11.88 258.257 0.0222823 0.0222805 
2.811 6.10 6.04 0.6349 0.7259 11.85 257.926 0.796392 0.714838 
2.815 7.37 7.31 0.7577 0.7725 11.79 257.485 1.82699 0.967361 
2.818 5.11 5.05 0.8710 0.7934 11.80 257.155 2.59879 0.51654 
2.821 1.40 1.34 0.9041 0.8769 11.85 256.825 3.36959 -0.226028 
2.824 -1.67 -1.73 0.8030 0.9057 11.87 256.495 4.13941 -0.840288 
2.827 -2.38 -2.43 0.8008 0.7484 11.85 256.166 4.90823 -0.980884 
2.830 -0.32 -0.38 0.6082 0.7728 11.85 255.837 5.67607 -0.570497 
2.833 3.32 3.27 0.6257 0.6680 11.86 255.509 0.159744 0.159066 
2.836 6.52 6.46 0.6511 0.7473 11.85 255.181 0.925616 0.798991 
2.839 7.49 7.43 0.7158 0.7308 11.80 254.854 1.69051 0.992843 
2.842 5.70 5.64 0.7983 0.8321 11.79 254.527 2.45441 0.63436 
2.845 2.15 2.09 0.7613 0.8836 11.84 254.2 3.21734 -0.0756756 
2.848 -1.20 -1.23 0.9180 0.8878 11.87 253.874 3.97929 -0.743104 
2.851 -2.47 -2.53 0.7867 0.8560 11.85 253.549 4.74026 -0.999612 
2.854 -1.01 -1.04 0.7021 0.6214 11.85 253.223 5.50026 -0.705359 
2.858 3.66 3.60 0.6405 0.6594 11.87 252.79 0.22888 0.226887 
2.861 6.70 6.64 0.6482 0.7317 11.84 252.466 0.986601 0.834156 
2.864 7.45 7.40 0.7192 0.7340 11.79 252.142 1.74335 0.985149 
2.867 5.53 5.47 0.8051 0.8571 11.80 251.818 2.49913 0.599169 
2.870 1.97 1.91 0.7668 0.9225 11.84 251.495 3.25394 -0.112109 
2.873 -1.28 -1.34 0.9285 0.9048 11.87 251.173 4.00778 -0.761864 
2.876 -2.46 -2.52 0.7946 0.8596 11.85 250.85 4.76065 -0.998836 
2.879 -0.95 -1.01 0.7020 0.7180 11.85 250.529 5.51256 -0.696585 
2.883 3.67 3.61 0.6140 0.6495 11.87 250.1 0.230416 0.228383 
2.886 6.68 6.62 0.6519 0.7465 11.84 249.779 0.980075 0.830539 
2.889 7.48 7.39 0.7271 0.8136 11.80 249.459 1.72877 0.987548 
2.892 5.63 5.54 0.7961 0.7514 11.80 249.139 2.47651 0.617127 
2.895 2.13 2.05 0.8551 0.8988 11.84 248.819 3.22328 -0.0815998 
2.898 -1.14 -1.22 0.9550 0.9025 11.87 248.5 3.9691 -0.736248 
2.901 -2.48 -2.52 1.0453 0.8610 11.85 248.181 4.71396 -0.999999 
2.905 -0.20 -0.26 0.5946 0.7171 11.85 247.756 5.70563 -0.545982 
2.908 3.35 3.29 0.6416 0.5679 11.87 247.439 0.165073 0.164324 
2.911 6.45 6.42 0.6487 0.7212 11.84 247.121 0.906754 0.787507 
2.914 7.51 7.46 0.7165 0.7100 11.80 246.804 1.64748 0.997061 
2.917 5.94 5.91 0.7782 0.8362 11.79 246.487 2.38726 0.684802 
2.921 1.39 1.33 0.8388 0.8820 11.85 246.066 3.37216 -0.228527 
2.924 -1.59 -1.65 0.8649 0.9224 11.86 245.75 4.10972 -0.823827 
2.927 -2.44 -2.47 0.8488 0.7651 11.85 245.435 4.84634 -0.991042 
2.930 -0.70 -0.75 0.6023 0.7290 11.85 245.12 5.58202 -0.645111 
2.933 2.70 2.64 0.6209 0.5583 11.87 244.805 0.0335624 0.0335561 
2.937 6.77 6.71 0.6326 0.6526 11.84 244.387 1.01174 0.847754 
2.940 7.45 7.39 0.6818 0.7078 11.80 244.073 1.74427 0.984991 
2.943 5.62 5.56 0.8871 0.7542 11.80 243.76 2.47586 0.617633 
2.946 2.21 2.15 0.8231 0.8691 11.85 243.447 3.20652 -0.0648792 
2.949 -1.04 -1.10 0.8024 0.9247 11.87 243.135 3.93623 -0.713613 
2.953 -2.38 -2.43 0.6805 0.8520 11.84 242.719 4.90773 -0.980981 
2.956 -0.49 -0.55 0.7041 0.6787 11.85 242.408 5.63527 -0.603526 
2.959 2.92 2.86 0.6381 0.6287 11.87 242.097 0.0786845 0.0786033 
2.962 6.13 6.07 0.6128 0.6178 11.85 241.786 0.804353 0.720382 
2.966 7.43 7.37 0.7721 0.7429 11.80 241.372 1.77046 0.980133 
2.969 5.55 5.49 0.7107 0.8556 11.80 241.063 2.49396 0.603299 
2.972 2.17 2.08 0.8616 0.8925 11.84 240.754 3.21653 -0.074868 
2.975 -1.02 -1.13 0.8928 1.0624 11.87 240.445 3.93817 -0.71497 
2.979 -2.37 -2.46 0.8290 0.7545 11.85 240.033 4.89892 -0.982653 
2.982 -0.53 -0.64 0.6821 0.7247 11.85 239.725 5.61841 -0.616884 
2.985 2.83 2.71 0.5952 0.7270 11.88 239.418 0.0537845 0.0537586 
2.989 6.79 6.68 0.6765 0.7760 11.84 239.008 1.01043 0.847062 
2.992 7.50 7.38 0.7207 0.7422 11.80 238.702 1.72684 0.987849 
2.995 5.78 5.66 0.7826 0.7922 11.80 238.395 2.44234 0.643649 
2.998 2.48 2.36 0.9291 0.8781 11.84 238.09 3.15691 -0.0153176 
3.002 -1.55 -1.67 0.8524 0.8281 11.87 237.682 4.10825 -0.822992 
3.005 -2.41 -2.53 0.8433 0.8691 11.85 237.377 4.82069 -0.994141 
3.008 -0.85 -0.97 0.7113 0.6964 11.85 237.073 5.53221 -0.68235 
3.012 3.54 3.41 0.6169 0.6429 11.87 236.667 0.196305 0.195047 
3.015 6.50 6.37 0.5877 0.5504 11.85 236.364 0.9057 0.786857 
3.018 7.56 7.43 0.7090 0.7134 11.80 236.061 1.61418 0.999059 
3.022 5.32 5.20 0.7781 0.8252 11.81 235.657 2.55742 0.551512 
3.025 1.97 1.81 0.8978 0.9198 11.85 235.354 3.26378 -0.121886 
3.028 -1.12 -1.24 0.9635 0.9311 11.87 235.052 3.96924 -0.736342 
3.032 -2.34 -2.47 0.7972 0.8226 11.85 234.65 4.90845 -0.980842 
3.035 -0.55 -0.67 0.6757 0.7715 11.86 234.349 5.61179 -0.622075 
3.038 2.72 2.59 0.6276 0.6409 11.87 234.049 0.0310566 0.0310516 
3.042 6.68 6.55 0.6198 0.6136 11.84 233.648 0.96625 0.82276 
3.045 7.54 7.41 0.6215 0.6243 11.80 233.349 1.6666 0.995415 
3.048 6.05 5.95 0.8326 0.7874 11.81 233.049 2.36604 0.700109 
3.052 1.78 1.67 0.8669 0.9138 11.86 232.651 3.29724 -0.155023 
3.055 -1.21 -1.32 0.9575 0.9492 11.87 232.352 3.9946 -0.75326 
3.059 -2.34 -2.44 0.8378 0.8056 11.86 231.955 4.92301 -0.977901 
3.062 -0.55 -0.62 0.6938 0.6394 11.85 231.657 5.61828 -0.616984 
3.065 2.69 2.61 0.6914 0.5373 11.87 231.36 0.029473 0.0294687 
3.069 6.62 6.54 0.5520 0.6723 11.85 230.964 0.953923 0.815691 
3.072 7.54 7.43 0.7453 0.6887 11.80 230.668 1.64622 0.997157 
3.076 5.26 5.16 0.8313 0.8572 11.82 230.273 2.56791 0.54273 
3.079 1.96 1.88 0.7871 0.9198 11.85 229.978 3.25814 -0.116281 
3.082 -1.07 -1.15 0.9157 0.8566 11.86 229.683 3.94748 -0.721446 
3.086 -2.39 -2.49 0.7987 0.7991 11.85 229.29 4.86523 -0.988343 
3.089 -0.80 -0.88 0.7155 0.7160 11.85 228.996 5.55251 -0.667371 
3.093 3.46 3.38 0.6190 0.6230 11.87 228.604 0.184331 0.183289 
3.096 6.36 6.28 0.5395 0.6413 11.85 228.311 0.869557 0.764043 
3.100 7.43 7.35 0.7247 0.7599 11.79 227.92 1.78182 0.977816 
3.103 5.68 5.58 0.7760 0.8599 11.80 227.628 2.465 0.62614 
3.106 2.52 2.42 0.7935 0.9562 11.85 227.336 3.1473 -0.00570684 
3.110 -1.41 -1.51 0.9190 0.9330 11.87 226.947 4.05567 -0.792 
3.113 -2.43 -2.56 0.8645 0.8701 11.85 226.656 4.73593 -0.999723 
3.117 -0.44 -0.55 0.6736 0.7150 11.86 226.268 5.64158 -0.598479 
3.120 2.74 2.63 0.5352 0.6468 11.87 225.978 0.0366232 0.036615 
3.124 6.59 6.48 0.6759 0.6082 11.84 225.591 0.939569 0.807304 
3.127 7.55 7.44 0.6891 0.6944 11.80 225.302 1.61576 0.998989 
3.131 5.50 5.36 0.8444 1.0281 11.80 224.917 2.51601 0.585571 
3.134 2.31 2.20 0.9335 0.9234 11.85 224.628 3.19018 -0.04857 
3.138 -1.49 -1.62 0.9332 0.8418 11.87 224.244 4.08773 -0.811165 
3.141 -2.43 -2.56 0.7915 0.8728 11.84 223.956 4.75989 -0.998872 
3.145 -0.36 -0.52 0.5789 0.7044 11.85 223.573 5.65476 -0.587874 
3.148 2.78 2.64 0.6279 0.6531 11.87 223.286 0.0417168 0.0417047 
3.152 6.59 6.45 0.6108 0.6221 11.84 222.904 0.933907 0.80395 
3.155 7.57 7.43 0.6148 0.7837 11.79 222.618 1.60205 0.999512 
3.159 5.58 5.47 0.8513 0.8126 11.81 222.238 2.49157 0.605204 
3.162 2.49 2.35 0.9002 0.9516 11.85 221.953 3.15771 -0.0161198 
3.166 -1.35 -1.50 0.8758 0.9327 11.87 221.573 4.04457 -0.785177 
3.170 -2.32 -2.44 0.7524 0.7979 11.84 221.194 4.92992 -0.976434 
3.173 -0.64 -0.73 0.6921 0.6722 11.85 220.91 5.59293 -0.636732 
3.177 3.51 3.40 0.6305 0.5882 11.87 220.532 0.192444 0.191258 
3.180 6.31 6.22 0.7233 0.6895 11.84 220.249 0.853475 0.753569 
3.184 7.49 7.38 0.7679 0.7366 11.79 219.873 1.73353 0.986788 
3.187 5.96 5.85 0.8092 0.8440 11.79 219.591 2.39258 0.680913 
3.191 1.92 1.80 0.9398 0.7987 11.85 219.215 3.27001 -0.128063 
3.194 -0.99 -1.08 0.9762 0.9500 11.87 218.934 3.92709 -0.707177 
3.198 -2.42 -2.54 0.8625 0.7714 11.85 218.559 4.80189 -0.995997 
3.202 -0.31 -0.40 0.6654 0.6983 11.86 218.186 5.67519 -0.571222 
3.205 2.77 2.68 0.6086 0.5381 11.87 217.906 0.046003 0.0459868 
3.209 6.53 6.41 0.6369 0.6543 11.83 217.533 0.916694 0.793594 
3.213 7.44 7.33 0.7227 0.7689 11.78 217.161 1.78589 0.976955 
3.216 5.78 5.69 0.8693 0.8910 11.79 216.882 2.43682 0.647861 
3.220 1.74 1.65 0.7977 0.8975 11.86 216.511 3.30342 -0.161123 
3.223 -1.08 -1.17 0.9558 0.9290 11.87 216.234 3.9524 -0.724843 
3.227 -2.43 -2.52 0.7843 0.7586 11.85 215.864 4.81641 -0.994595 
3.231 -0.29 -0.39 0.6703 0.6862 11.85 215.495 5.67894 -0.56814 
3.234 2.75 2.66 0.6194 0.6386 11.86 215.218 0.0416862 0.0416742 
3.238 6.47 6.38 0.6751 0.6181 11.83 214.85 0.901638 0.784344 
3.242 7.46 7.37 0.6588 0.6492 11.78 214.482 1.76012 0.982132 
3.245 5.91 5.82 0.8586 0.8682 11.80 214.207 2.40302 0.673236 
3.249 1.96 1.87 0.8901 0.9109 11.84 213.841 3.25893 -0.117067 
3.253 -1.58 -1.68 0.8601 0.8379 11.87 213.475 4.11338 -0.825893 
3.256 -2.46 -2.53 0.8372 0.8772 11.85 213.201 4.75326 -0.999165 
3.260 -0.60 -0.67 0.6780 0.7226 11.85 212.837 5.60515 -0.627265 
3.264 3.39 3.33 0.6138 0.6095 11.87 212.473 0.1724 0.171547 
3.267 6.15 6.09 0.7174 0.6959 11.85 212.2 0.809272 0.723785 
3.271 7.51 7.45 0.6163 0.6495 11.78 211.837 1.65716 0.996273 
3.275 5.50 5.46 0.7637 0.8294 11.80 211.475 2.50361 0.595578 
3.279 1.49 1.45 1.0006 0.8608 11.84 211.113 3.3486 -0.205534 
3.282 -1.21 -1.24 0.9481 0.8911 11.86 210.842 3.9814 -0.744514 
3.286 -2.46 -2.47 0.9943 0.8634 11.85 210.482 4.82387 -0.993793 
3.290 -0.40 -0.40 0.5989 0.5783 11.87 210.122 5.66489 -0.579644 
3.293 2.55 2.57 0.6319 0.6236 11.87 209.852 0.0115334 0.0115332 
3.297 6.24 6.27 0.5987 0.6363 11.84 209.493 0.850044 0.75131 
3.301 7.45 7.48 0.7821 0.7217 11.78 209.135 1.68712 0.993242 
3.305 5.39 5.41 0.8773 0.8721 11.80 208.777 2.52277 0.58008 
3.308 2.45 2.48 0.9429 0.9173 11.83 208.509 3.14856 -0.00696877 
3.312 -1.23 -1.22 0.9681 0.9675 11.86 208.153 3.98171 -0.744719 
3.316 -2.49 -2.46 0.7995 0.8740 11.85 207.797 4.81343 -0.9949 
3.320 -0.49 -0.48 0.6852 0.7063 11.85 207.441 5.64372 -0.596763 
3.324 3.44 3.44 0.5193 0.6076 11.87 207.086 0.189418 0.188287 
3.327 6.12 6.13 0.5152 0.6213 11.84 206.821 0.810146 0.724388 
3.331 7.48 7.49 0.7065 0.6249 11.77 206.467 1.63654 0.997839 
3.335 5.65 5.64 0.8518 0.8356 11.80 206.114 2.46153 0.628842 
3.339 1.79 1.78 0.9068 1.0315 11.85 205.761 3.2851 -0.143019 
3.343 -1.60 -1.62 1.0130 0.9024 11.86 205.409 4.10727 -0.822434 
3.346 -2.49 -2.50 0.8778 0.8441 11.85 205.146 4.72297 -0.999944 
3.350 -0.85 -0.89 0.6725 0.6905 11.85 204.795 5.54268 -0.674664 
3.354 2.89 2.88 0.6801 0.5291 11.87 204.445 0.0777957 0.0777172 
3.358 6.42 6.38 0.5995 0.6523 11.84 204.095 0.8947 0.780022 
3.362 7.47 7.43 0.7117 0.7666 11.79 203.746 1.71021 0.990298 
3.366 5.42 5.36 0.8809 0.9249 11.80 203.398 2.52432 0.578813 
3.370 1.56 1.50 0.9722 0.9887 11.85 203.05 3.33704 -0.194207 
3.373 -1.07 -1.13 0.9827 0.9520 11.87 202.789 3.94567 -0.72019 
3.377 -2.46 -2.53 0.8025 0.8880 11.85 202.442 4.75596 -0.999051 
3.381 -0.74 -0.83 0.6784 0.7137 11.85 202.096 5.56486 -0.658123 
3.385 2.99 2.90 0.5655 0.6198 11.87 201.75 0.0891973 0.0890791 
3.389 6.45 6.36 0.6400 0.6447 11.83 201.405 0.895336 0.780419 
3.393 7.52 7.40 0.6530 0.7706 11.79 201.061 1.7001 0.991652 
3.397 5.54 5.42 0.7955 0.8844 11.80 200.717 2.50348 0.59568 
3.401 1.74 1.62 0.9763 0.8837 11.85 200.374 3.30549 -0.163165 
3.405 -1.53 -1.68 0.9567 0.9278 11.87 200.031 4.10613 -0.821784 
3.409 -2.35 -2.47 0.7570 0.8430 11.85 199.689 4.9054 -0.981432 
3.412 -0.94 -1.09 0.6969 0.5893 11.85 199.433 5.50395 -0.702734 
3.416 2.66 2.51 0.5809 0.6630 11.87 199.092 0.0176441 0.0176432 
3.420 6.21 6.06 0.6054 0.5825 11.84 198.751 0.813159 0.726462 
3.424 7.57 7.42 0.7509 0.7587 11.80 198.411 1.60731 0.999333 
3.428 5.95 5.80 0.7530 0.8774 11.80 198.072 2.40011 0.675382 
3.432 2.33 2.17 0.9125 0.8955 11.85 197.733 3.19155 -0.0499371 
3.436 -1.15 -1.30 0.9433 0.9849 11.86 197.395 3.98164 -0.744673 
3.440 -2.41 -2.57 0.8434 0.8453 11.84 197.057 4.77037 -0.998319 
3.444 -0.74 -0.90 0.6699 0.6627 11.85 196.72 5.55776 -0.663455 
3.448 2.88 2.72 0.6032 0.6350 11.87 196.384 0.0606133 0.0605762 
3.452 6.32 6.16 0.5980 0.6920 11.84 196.048 0.845309 0.748176 
3.456 7.56 7.42 0.7993 0.6405 11.79 195.713 1.62866 0.998326 
3.460 5.92 5.75 0.9040 0.9001 11.80 195.378 2.41068 0.667553 
3.464 2.33 2.17 0.9605 1.0057 11.85 195.044 3.19135 -0.0497382 
3.468 -1.10 -1.27 0.9341 0.9247 11.87 194.71 3.97069 -0.737324 
3.472 -2.43 -2.57 0.8878 0.8705 11.84 194.377 4.7487 -0.999341 
3.476 -0.86 -1.01 0.7180 0.7090 11.85 194.045 5.52538 -0.687331 
3.480 2.67 2.50 0.5963 0.6166 11.87 193.713 0.0175406 0.0175397 
3.484 6.16 5.96 0.6120 0.9181 11.85 193.381 0.791563 0.711453 
3.489 7.50 7.33 0.7966 0.8371 11.79 192.968 1.75723 0.982671 
3.493 5.46 5.29 0.9217 0.8004 11.81 192.638 2.52828 0.575581 
3.497 1.79 1.65 1.0267 0.9430 11.85 192.309 3.29801 -0.155777 
3.501 -1.42 -1.57 1.0368 0.9436 11.87 191.98 4.06642 -0.798516 
3.505 -2.39 -2.54 0.8135 0.8203 11.85 191.651 4.83352 -0.992673 
3.509 -0.58 -0.73 0.7006 0.6504 11.86 191.324 5.5993 -0.631808 
3.513 2.98 2.83 0.5867 0.4893 11.87 190.996 0.0805923 0.0805051 
3.517 6.31 6.16 0.6174 0.6310 11.84 190.67 0.843761 0.747148 
3.521 7.56 7.43 0.6221 0.6648 11.80 190.344 1.60562 0.999394 
3.525 6.06 5.94 0.7723 0.8632 11.80 190.018 2.36618 0.700007 
3.530 1.70 1.57 0.9116 0.9072 11.86 189.612 3.31506 -0.172595 
3.534 -1.46 -1.56 0.9644 0.9671 11.86 189.288 4.07269 -0.802277 
3.538 -2.42 -2.52 0.7956 0.8266 11.85 188.964 4.82903 -0.993205 
3.542 -0.67 -0.77 0.7573 0.6578 11.86 188.641 5.58408 -0.643533 
3.546 2.82 2.72 0.6579 0.5912 11.87 188.318 0.0546519 0.0546247 
3.550 6.16 6.06 0.6423 0.6010 11.85 187.996 0.807119 0.722297 
3.555 7.47 7.37 0.7983 0.7631 11.79 187.594 1.74589 0.98471 
3.559 5.55 5.47 0.8846 0.8211 11.81 187.273 2.49547 0.602098 
3.563 2.04 1.94 0.9392 1.0188 11.86 186.953 3.24376 -0.101989 
3.567 -1.22 -1.29 1.0611 0.9200 11.86 186.633 3.99077 -0.750738 
3.571 -2.46 -2.53 0.8670 0.8392 11.85 186.314 4.73651 -0.999709 
3.576 -0.35 -0.43 0.5603 0.7628 11.86 185.916 5.66688 -0.578022 
3.580 3.17 3.10 0.5827 0.5132 11.87 185.598 0.126565 0.126227 
3.584 6.35 6.28 0.5818 0.6331 11.84 185.28 0.868162 0.763143 
3.588 7.54 7.45 0.7631 0.7227 11.79 184.963 1.60849 0.99929 
3.593 5.40 5.33 0.8288 0.8868 11.81 184.568 2.53212 0.572433 
3.597 1.91 1.81 1.0264 0.9707 11.85 184.252 3.26961 -0.127664 
3.601 -1.27 -1.34 0.8979 0.9966 11.87 183.937 4.00583 -0.760599 
3.605 -2.46 -2.53 0.8459 0.8504 11.85 183.623 4.74079 -0.999597 
3.610 -0.39 -0.46 0.6801 0.5714 11.85 183.23 5.65773 -0.585469 
3.614 3.07 3.00 0.5206 0.6462 11.87 182.917 0.106678 0.106476 
3.618 6.26 6.17 0.6009 0.5391 11.84 182.604 0.837563 0.743015 
3.623 7.45 7.39 0.7725 0.7011 11.79 182.214 1.74941 0.984091 
3.627 5.62 5.55 0.9350 0.7527 11.80 181.902 2.47749 0.616354 
3.631 2.22 2.15 0.9817 0.9805 11.86 181.591 3.20432 -0.0626845 
3.635 -1.01 -1.08 0.9626 0.9798 11.87 181.28 3.92991 -0.709165 
3.640 -2.43 -2.50 0.7100 0.8231 11.85 180.893 4.83514 -0.992475 
3.644 -0.80 -0.84 0.6663 0.6922 11.85 180.584 5.55794 -0.663317 
3.649 3.41 3.35 0.5486 0.5701 11.87 180.198 0.176516 0.175601 
3.653 6.42 6.39 0.5080 0.6479 11.84 179.889 0.896536 0.781169 
3.657 7.53 7.46 0.7258 0.7360 11.79 179.582 1.61532 0.999009 
3.662 5.47 5.41 0.9086 0.7735 11.81 179.198 2.51208 0.588751 
3.666 2.10 2.04 1.0047 0.9484 11.86 178.891 3.22811 -0.0864048 
3.670 -1.06 -1.12 1.0024 0.9748 11.87 178.585 3.94291 -0.71827 
3.675 -2.43 -2.49 0.6813 0.8378 11.85 178.204 4.83469 -0.992531 
3.679 -0.83 -0.89 0.6393 0.6859 11.86 177.899 5.54674 -0.671659 
3.684 3.30 3.21 0.5643 0.5737 11.88 177.519 0.151907 0.151324 
3.688 6.34 6.25 0.5473 0.5962 11.83 177.215 0.861222 0.75864 
3.693 7.47 7.38 0.6244 0.7704 11.78 176.836 1.74616 0.984663 
3.697 5.71 5.65 0.9051 0.8648 11.80 176.534 2.45275 0.635645 
3.701 2.45 2.39 1.0657 0.8933 11.85 176.232 3.15813 -0.016536 
3.706 -1.36 -1.45 0.9704 0.9339 11.87 175.855 4.03816 -0.781188 
3.710 -2.45 -2.54 0.8412 0.7699 11.85 175.554 4.74083 -0.999596 
3.715 -0.56 -0.62 0.5620 0.7056 11.85 175.179 5.61747 -0.61762 
3.719 2.70 2.64 0.5666 0.5483 11.87 174.88 0.0342547 0.034248 
3.724 6.47 6.41 0.6095 0.6121 11.83 174.506 0.907531 0.787986 
3.728 7.54 7.45 0.7190 0.7669 11.78 174.207 1.60481 0.999422 
3.733 5.61 5.58 0.9046 0.7851 11.80 173.835 2.47473 0.618527 
3.737 2.39 2.33 1.0000 1.0547 11.85 173.538 3.16932 -0.0277263 
3.742 -1.37 -1.43 0.8395 0.9776 11.87 173.167 4.0359 -0.779774 
3.746 -2.47 -2.53 0.7486 0.8554 11.84 172.871 4.72782 -0.999881 
3.751 -0.66 -0.72 0.6515 0.5786 11.86 172.501 5.59107 -0.638169 
3.756 3.37 3.31 0.5763 0.5815 11.88 172.132 0.169282 0.168474 
3.760 6.31 6.25 0.5890 0.5949 11.83 171.838 0.857075 0.755931 
3.765 7.48 7.42 0.7477 0.7826 11.79 171.471 1.71516 0.989597 
3.769 5.90 5.85 0.8992 0.8691 11.79 171.177 2.40031 0.675234 
3.774 1.96 1.91 0.9988 0.9891 11.85 170.811 3.2551 -0.113264 
3.778 -1.06 -1.09 0.9427 0.9315 11.85 170.519 3.93762 -0.71458 
3.783 -2.46 -2.51 0.7614 0.8419 11.85 170.155 4.78912 -0.997058 
3.788 -0.48 -0.53 0.5563 0.6968 11.85 169.791 5.6388 -0.600706 
3.792 2.70 2.64 0.6867 0.5684 11.87 169.501 0.034054 0.0340474 
3.797 6.38 6.33 0.5876 0.5725 11.83 169.138 0.88047 0.771039 
3.802 7.47 7.41 0.8272 0.7599 11.78 168.777 1.72508 0.988122 
3.806 5.91 5.85 0.8518 0.8124 11.78 168.488 2.39946 0.675859 
3.811 2.03 1.98 1.0424 0.9545 11.85 168.128 3.24082 -0.0990683 
3.816 -1.50 -1.57 1.0416 0.9457 11.86 167.769 4.08039 -0.806846 
3.820 -2.47 -2.52 0.7981 0.8284 11.85 167.482 4.75074 -0.999265 
3.825 -0.68 -0.73 0.5489 0.6763 11.85 167.124 5.58708 -0.641235 
3.830 3.21 3.16 0.5243 0.5820 11.87 166.767 0.13844 0.137999 
3.834 6.14 6.06 0.5365 0.6757 11.83 166.481 0.804794 0.720688 
3.839 7.54 7.44 0.6718 0.7398 11.79 166.126 1.63613 0.997866 
3.844 5.67 5.59 0.9225 0.8987 11.80 165.77 2.46569 0.625598 
3.849 1.78 1.70 1.0168 1.0203 11.85 165.416 3.29348 -0.151308 
3.853 -1.09 -1.17 0.9377 0.9587 11.86 165.133 3.95444 -0.726248 
3.858 -2.45 -2.53 0.7713 0.6924 11.84 164.78 4.77905 -0.997779 
3.863 -0.60 -0.70 0.5799 0.6542 11.85 164.428 5.60189 -0.629798 
3.868 3.25 3.14 0.5353 0.5253 11.87 164.077 0.139793 0.139338 
3.872 6.11 6.03 0.5769 0.5727 11.83 163.796 0.795397 0.714142 
3.877 7.55 7.44 0.7518 0.7934 11.79 163.446 1.61333 0.999096 
3.882 5.81 5.73 0.9050 0.8483 11.80 163.096 2.42951 0.653414 
3.887 2.04 1.94 0.9684 0.9766 11.85 162.748 3.24394 -0.102172 
3.892 -1.41 -1.52 0.9023 0.9609 11.86 162.4 4.05664 -0.792591 
3.897 -2.38 -2.49 0.7773 0.6753 11.84 162.053 4.8676 -0.987979 
3.901 -0.92 -1.03 0.7707 0.6880 11.85 161.776 5.51512 -0.694747 
3.906 2.75 2.64 0.5481 0.5629 11.87 161.43 0.0397722 0.0397617 
3.911 6.30 6.19 0.5565 0.5736 11.83 161.085 0.845886 0.748559 
3.916 7.54 7.43 0.0000 0.7313 11.79 160.741 1.65028 0.996843 
3.921 5.73 5.62 0.9008 0.8806 11.80 160.397 2.45295 0.63549 
3.926 2.00 1.88 1.0401 0.9446 11.86 160.054 3.25391 -0.112077 
3.931 -1.41 -1.49 0.9468 1.0312 11.87 159.712 4.05315 -0.790459 
3.936 -2.40 -2.51 0.8535 0.8235 11.85 159.371 4.85069 -0.990452 
3.941 -0.42 -0.53 0.6314 0.5981 11.85 159.03 5.64652 -0.594518 
3.946 3.34 3.23 0.5659 0.5508 11.87 158.69 0.157464 0.156814 
3.950 6.11 6.00 0.5541 0.4812 11.84 158.419 0.791546 0.71144 
3.955 7.56 7.44 0.6725 0.6295 11.80 158.08 1.58262 0.99993 
3.960 6.04 5.92 0.9084 0.9132 11.80 157.742 2.37201 0.695836 
3.965 2.47 2.35 1.0822 1.0353 11.85 157.405 3.15971 -0.0181153 
3.970 -1.06 -1.14 1.0020 0.9932 11.87 157.069 3.94572 -0.720229 
3.975 -2.46 -2.54 0.8529 0.8707 11.84 156.733 4.73006 -0.999844 
3.980 -0.94 -1.03 0.6245 0.6758 11.85 156.398 5.51272 -0.69647 
3.985 2.60 2.51 0.5666 0.6487 11.87 156.064 0.0105202 0.01052 
3.990 6.11 5.99 0.4990 0.5522 11.84 155.73 0.789837 0.710239 
3.996 7.49 7.40 0.7589 0.7118 11.79 155.331 1.72282 0.988467 
4.001 5.54 5.45 0.8999 0.8487 11.81 154.999 2.49848 0.599692 
4.006 1.89 1.80 1.0278 0.9812 11.86 154.667 3.27247 -0.130509 
4.011 -1.38 -1.47 1.0260 0.9438 11.86 154.337 4.04482 -0.785329 
4.016 -2.44 -2.50 0.7967 0.7477 11.85 154.007 4.81551 -0.994687 
4.021 -0.67 -0.76 0.6314 0.6455 11.85 153.678 5.58456 -0.643166 
4.026 2.87 2.81 0.4518 0.4823 11.87 153.349 0.0687768 0.0687226 
4.031 6.23 6.17 0.5662 0.5609 11.84 153.021 0.834539 0.740987 
4.036 7.51 7.48 0.7029 0.6997 11.79 152.694 1.59866 0.999612 
4.041 6.02 6.02 0.9624 0.7664 11.81 152.368 2.36116 0.703589 
4.047 1.85 1.82 0.9710 1.0243 11.86 151.977 3.274 -0.132018 
4.052 -1.40 -1.38 1.2617 1.0280 11.87 151.652 4.03291 -0.7779 
4.057 -2.50 -2.47 0.7453 0.7995 11.85 151.328 4.7902 -0.996974 
4.062 -0.86 -0.86 0.5505 0.6690 11.86 151.005 5.54587 -0.672304 
4.067 2.58 2.59 0.5081 0.5359 11.87 150.682 0.0167386 0.0167378 
4.073 6.46 6.49 0.5628 0.5595 11.83 150.296 0.919478 0.795285 
4.078 7.47 7.48 0.7500 0.7812 11.79 149.974 1.66999 0.995084 
4.083 5.79 5.83 0.9287 0.8538 11.81 149.654 2.4189 0.661405 
4.088 2.37 2.38 1.0672 1.0024 11.85 149.334 3.16621 -0.0246162 
4.094 -1.48 -1.47 1.0055 0.9570 11.86 148.951 4.06087 -0.795166 
4.099 -2.49 -2.47 0.6736 0.8368 11.85 148.633 4.80467 -0.995745 
4.104 -0.87 -0.85 0.6211 0.5840 11.85 148.315 5.54688 -0.671552 
4.109 2.52 2.52 0.5007 0.5284 11.87 147.998 0.00432175 0.00432174 
4.115 6.39 6.38 0.5525 0.5920 11.83 147.618 0.89098 0.777688 
4.120 7.49 7.49 0.7364 0.7594 11.78 147.303 1.62813 0.998357 
4.125 6.00 6.02 0.9099 0.9064 11.80 146.988 2.36369 0.701784 
4.131 1.97 2.00 1.0451 0.9967 11.86 146.611 3.2443 -0.10253 
4.136 -1.21 -1.21 0.9802 0.9629 11.87 146.298 3.97642 -0.741179 
4.142 -2.45 -2.45 0.7928 0.7641 11.85 145.923 4.85289 -0.990146 
4.147 -0.71 -0.74 0.6426 0.6385 11.86 145.611 5.58157 -0.645454 
4.152 2.64 2.62 0.5027 0.6259 11.87 145.299 0.0255014 0.0254987 
4.158 6.42 6.39 0.5801 0.6137 11.82 144.927 0.895993 0.78083 
4.163 7.50 7.48 0.7655 0.7796 11.78 144.617 1.6197 0.998805 
4.169 5.56 5.54 0.9910 0.9534 11.81 144.246 2.4861 0.609549 
4.174 2.19 2.16 1.0444 0.9578 11.86 143.938 3.20641 -0.0647683 
4.180 -1.49 -1.51 0.9943 0.9975 11.86 143.569 4.06874 -0.799912 
4.185 -2.46 -2.51 0.7443 0.8266 11.86 143.262 4.78566 -0.997317 
4.190 -1.00 -1.05 0.6253 0.6593 11.86 142.956 5.50105 -0.704792 
4.196 2.90 2.85 0.5119 0.5306 11.87 142.589 0.0743195 0.0742511 
4.201 6.06 6.01 0.5302 0.5577 11.84 142.284 0.78635 0.70778 
4.207 7.51 7.46 0.7365 0.7778 11.79 141.919 1.63878 0.99769 
4.213 5.57 5.50 0.9861 0.9193 11.80 141.555 2.48902 0.607232 
4.218 2.27 2.19 1.0786 1.0325 11.86 141.253 3.19589 -0.0542711 
4.224 -1.38 -1.46 1.0689 0.9576 11.86 140.891 4.04214 -0.783667 
4.229 -2.47 -2.52 0.8237 1.1878 11.85 140.59 4.74569 -0.999446 
4.235 -0.66 -0.74 0.5902 0.6379 11.85 140.229 5.58796 -0.640556 
4.240 2.56 2.49 0.4901 0.5057 11.87 139.929 0.00502413 0.00502411 
4.246 6.27 6.20 0.5597 0.5618 11.83 139.57 0.843343 0.746871 
4.252 7.51 7.43 0.7678 0.7860 11.80 139.213 1.67951 0.994096 
4.257 6.01 5.93 0.9058 0.9394 11.79 138.915 2.37468 0.693914 
4.263 2.21 2.13 1.0490 1.0135 11.85 138.559 3.20692 -0.0652856 
4.269 -1.38 -1.43 1.0238 1.0127 11.86 138.203 4.03703 -0.780484 
4.274 -2.47 -2.53 0.6919 0.8792 11.84 137.908 4.72716 -0.999891 
4.280 -0.79 -0.87 0.6188 0.6070 11.85 137.554 5.55337 -0.666729 
4.286 3.01 2.93 0.5142 0.5661 11.86 137.202 0.0942799 0.0941403 
4.292 6.51 6.42 0.6794 0.5875 11.82 136.85 0.916258 0.793329 
4.297 7.54 7.46 0.7609 0.7119 11.77 136.557 1.59963 0.999584 
4.303 5.84 5.78 0.9746 0.9810 11.80 136.207 2.41775 0.662272 
4.309 2.07 2.01 1.0600 1.1319 11.86 135.858 3.23377 -0.0920427 
4.315 -1.42 -1.45 1.0765 0.9844 11.87 135.509 4.04769 -0.787104 
4.320 -2.47 -2.53 0.7240 0.6845 11.83 135.22 4.72437 -0.999928 
4.326 -0.88 -0.93 0.5949 0.6298 11.85 134.873 5.53447 -0.680695 
4.332 2.84 2.75 0.4802 0.5059 11.86 134.527 0.0593163 0.0592816 
4.338 6.33 6.28 0.5850 0.6358 11.82 134.182 0.865271 0.761271 
4.344 7.50 7.45 0.6763 0.7004 11.77 133.838 1.66916 0.995166 
4.350 5.63 5.58 0.9386 0.8715 11.81 133.495 2.47099 0.621461 
4.356 1.88 1.83 1.0711 1.1076 11.86 133.153 3.27076 -0.128805 
4.361 -1.04 -1.09 1.0517 1.0421 11.86 132.868 3.93566 -0.713214 
4.367 -2.47 -2.53 0.8017 0.8349 11.84 132.527 4.73168 -0.999814 
4.373 -0.89 -0.98 0.6145 0.7352 11.85 132.187 5.52565 -0.68713 
4.379 2.71 2.63 0.4046 0.4845 11.87 131.848 0.0344049 0.0343981 
4.385 6.21 6.13 0.5122 0.5389 11.82 131.51 0.824311 0.73408 
4.391 7.54 7.45 0.7937 0.7684 11.78 131.173 1.61219 0.999143 
4.397 5.93 5.84 0.9386 0.9770 11.81 130.837 2.39805 0.676898 
4.403 2.34 2.25 1.1206 1.0833 11.85 130.501 3.1819 -0.0402938 
4.409 -1.12 -1.21 1.0353 1.0474 11.86 130.166 3.96373 -0.732604 
4.415 -2.45 -2.54 0.7952 0.7686 11.84 129.833 4.74356 -0.999514 
4.421 -0.91 -1.00 0.5947 0.7025 11.85 129.5 5.52139 -0.69022 
4.427 2.63 2.51 0.3991 0.5028 11.87 129.168 0.0140421 0.0140416 
4.433 6.10 5.98 0.5593 0.5336 11.83 128.836 0.787888 0.708865 
4.440 7.54 7.39 0.7778 0.7711 11.79 128.451 1.6882 0.993116 
4.446 5.72 5.60 0.9448 0.9493 11.81 128.122 2.45775 0.631774 
4.452 2.14 2.02 1.0624 1.0789 11.86 127.793 3.22533 -0.083642 
4.458 -1.19 -1.32 0.9836 0.9708 11.86 127.465 3.99094 -0.750852 
4.464 -2.45 -2.54 0.8664 0.7786 11.84 127.138 4.75459 -0.99911 
4.470 -0.92 -1.02 0.5263 0.5038 11.85 126.812 5.51628 -0.693909 
4.477 3.16 3.03 0.3943 0.4623 11.86 126.433 0.119265 0.118983 
4.483 6.41 6.28 0.5893 0.5582 11.83 126.109 0.876729 0.768651 
4.489 7.55 7.42 0.7883 0.7701 11.79 125.786 1.63225 0.998112 
4.495 5.98 5.88 0.9984 0.9435 11.81 125.463 2.38583 0.685841 
4.502 1.94 1.86 1.1497 1.0390 11.86 125.088 3.26257 -0.120685 
4.508 -1.28 -1.36 1.0460 0.9659 11.86 124.767 4.01198 -0.764576 
4.514 -2.46 -2.53 0.8562 0.7622 11.84 124.447 4.75946 -0.998893 
4.520 -0.97 -1.05 0.5780 0.4893 11.85 124.128 5.50502 -0.701973 
4.527 3.00 2.89 0.4541 0.4052 11.87 123.757 0.089245 0.0891266 
4.533 6.23 6.15 0.5646 0.5988 11.83 123.439 0.830673 0.738385 
4.540 7.50 7.42 0.7049 0.7663 11.79 123.07 1.69327 0.992509 
4.546 5.80 5.72 0.9885 0.9660 11.81 122.754 2.43058 0.652598 
4.552 2.40 2.35 1.1574 1.0325 11.86 122.44 3.16601 -0.0244141 
4.559 -1.31 -1.39 0.9750 1.0417 11.86 122.073 4.02162 -0.770756 
4.565 -2.47 -2.52 0.7738 0.7408 11.84 121.76 4.75296 -0.999177 
4.572 -0.62 -0.67 0.5627 0.5802 11.86 121.396 5.60383 -0.628292 
4.578 2.76 2.71 0.3745 0.4794 11.86 121.085 0.0479299 0.0479116 
4.585 6.44 6.36 0.5122 0.5536 11.83 120.723 0.894074 0.77963 
4.591 7.53 7.46 0.8089 0.7574 11.79 120.413 1.61733 0.998918 
4.598 5.68 5.63 1.0425 1.0006 11.82 120.053 2.45878 0.630981 
4.604 2.34 2.29 1.1066 1.0414 11.86 119.745 3.17801 -0.0364143 
4.611 -1.29 -1.37 0.9458 1.0414 11.86 119.387 4.0148 -0.766391 
4.617 -2.48 -2.52 0.8559 0.8456 11.85 119.081 4.73004 -0.999844 
4.624 -0.76 -0.84 0.5491 0.4956 11.86 118.724 5.56218 -0.660137 
4.631 3.08 3.00 0.4250 0.4931 11.87 118.369 0.108649 0.108435 
4.637 6.20 6.10 0.5063 0.4795 11.83 118.066 0.817802 0.729645 
4.644 7.55 7.42 0.7323 0.7265 11.79 117.713 1.64285 0.997405 
4.651 5.68 5.58 0.9322 1.0102 11.82 117.361 2.46543 0.625805 
4.657 2.40 2.33 1.0857 1.0150 11.86 117.06 3.16854 -0.0269431 
4.664 -1.22 -1.26 1.0593 1.0032 11.86 116.709 3.98655 -0.747946 
4.671 -2.44 -2.52 0.8651 0.8452 11.85 116.36 4.80212 -0.995977 
4.677 -0.98 -1.08 0.5638 0.6394 11.86 116.062 5.49924 -0.706078 
4.684 2.69 2.58 0.4253 0.3773 11.87 115.715 0.0270998 0.0270965 
4.691 6.25 6.17 0.4780 0.4909 11.82 115.369 0.835718 0.741778 
4.698 7.54 7.43 0.7649 0.7853 11.78 115.024 1.64192 0.997472 
4.705 5.74 5.67 1.0286 0.9519 11.81 114.68 2.44571 0.641066 
4.712 2.01 1.94 1.1615 1.1383 11.87 114.337 3.24709 -0.105303 
4.718 -1.03 -1.08 1.0902 1.0291 11.86 114.043 3.93208 -0.710699 
4.725 -2.47 -2.52 0.7897 0.8167 11.85 113.702 4.72902 -0.999862 
4.732 -0.92 -0.97 0.5506 0.5550 11.87 113.362 5.52358 -0.688638 
4.739 2.69 2.64 0.4209 0.4297 11.86 113.023 0.0325686 0.0325629 
4.746 6.20 6.13 0.5389 0.5117 11.82 112.685 0.822377 0.732765 
4.753 7.53 7.46 0.6556 0.7612 11.78 112.348 1.60982 0.999239 
4.760 5.92 5.87 0.9852 0.9660 11.80 112.012 2.39491 0.679205 
4.767 2.34 2.30 1.1628 1.0948 11.86 111.677 3.17766 -0.0360552 
4.774 -1.12 -1.17 1.1010 1.0569 11.86 111.343 3.95806 -0.728729 
4.781 -2.48 -2.52 0.8182 0.8437 11.84 111.01 4.73612 -0.999718 
4.788 -0.98 -0.99 0.5431 0.5253 11.85 110.678 5.51186 -0.697084 
4.795 2.53 2.49 0.4322 0.4030 11.87 110.347 0.00209683 0.00209683 
4.803 6.38 6.34 0.5252 0.5583 11.81 109.969 0.883172 0.772756 
4.810 7.50 7.46 0.7970 0.7993 11.77 109.641 1.65164 0.996734 
4.817 5.82 5.80 0.9923 1.0031 11.82 109.313 2.41781 0.662221 
4.824 2.33 2.27 1.0412 1.1993 11.87 108.986 3.18169 -0.0400902 
4.831 -1.06 -1.12 1.0308 1.1059 11.86 108.66 3.94329 -0.718537 
4.839 -2.44 -2.51 0.7790 0.8211 11.84 108.288 4.81089 -0.995152 
4.846 -0.73 -0.83 0.4434 0.5491 11.85 107.964 5.56762 -0.656047 
4.853 2.75 2.63 0.3862 0.4463 11.87 107.641 0.0388891 0.0388793 
4.860 6.12 6.00 0.5078 0.5433 11.82 107.319 0.791091 0.711121 
4.868 7.55 7.42 0.6973 0.7290 11.78 106.953 1.64799 0.997022 
4.875 5.94 5.84 0.9628 0.9406 11.81 106.633 2.39538 0.67886 
4.883 2.02 1.93 1.1279 1.1889 11.86 106.268 3.2468 -0.105018 
4.890 -1.19 -1.31 0.9965 1.0309 11.86 105.95 3.98941 -0.749839 
4.897 -2.45 -2.55 0.7593 0.7720 11.84 105.634 4.7298 -0.999848 
4.905 -0.69 -0.82 0.5269 0.5917 11.85 105.273 5.57324 -0.651794 
4.912 2.68 2.58 0.3940 0.4008 11.87 104.958 0.0257007 0.0256979 
4.920 6.37 6.24 0.6627 0.5605 11.82 104.599 0.863747 0.760282 
4.927 7.56 7.43 0.7828 0.8155 11.77 104.286 1.59469 0.999715 
4.935 5.86 5.70 1.0127 1.0061 11.82 103.93 2.42737 0.65503 
4.942 2.51 2.37 1.0638 1.1680 11.86 103.619 3.15363 -0.0120414 
4.950 -1.15 -1.29 1.0374 1.0390 11.86 103.265 3.98099 -0.744241 
4.958 -2.41 -2.55 0.7197 0.7875 11.84 102.912 4.80552 -0.995667 
4.965 -0.87 -1.01 0.5219 0.5018 11.85 102.604 5.52467 -0.687846 
4.973 2.86 2.75 0.4038 0.4565 11.86 102.253 0.0607344 0.0606971 
4.981 6.40 6.29 0.4961 0.5498 11.82 101.904 0.877187 0.768943 
4.988 7.56 7.44 0.7750 0.7927 11.79 101.599 1.58929 0.999829 
4.996 5.92 5.83 1.0467 1.0456 11.82 101.252 2.40052 0.675079 
5.004 2.19 2.13 1.1675 1.1578 11.86 100.906 3.20898 -0.0673324 
5.012 -1.30 -1.36 1.0722 1.0140 11.86 100.561 4.01467 -0.766309 
5.019 -2.46 -2.54 0.8818 0.7086 11.84 100.26 4.71739 -0.999987 
5.027 -0.92 -1.01 0.5065 0.5109 11.86 99.9173 5.51793 -0.692724 
5.035 2.72 2.61 0.3841 0.4146 11.86 99.5758 0.0325424 0.0325367 
5.043 6.22 6.14 0.5059 0.4889 11.82 99.2355 0.827617 0.736321 
5.051 7.55 7.44 0.7122 0.7194 11.79 98.8963 1.61997 0.998791 
5.059 5.91 5.77 1.0669 1.1168 11.82 98.5583 2.40962 0.668336 
5.067 2.28 2.17 1.1660 1.1814 11.86 98.2215 3.19657 -0.0549531 
5.075 -1.16 -1.28 1.0558 1.0706 11.86 97.8858 3.98083 -0.744136 
5.083 -2.42 -2.57 0.8437 0.7983 11.85 97.5512 4.76241 -0.998749 
5.091 -0.80 -0.95 0.5229 0.4573 11.86 97.2178 5.54132 -0.675662 
5.099 2.73 2.61 0.4428 0.3201 11.86 96.8856 0.0343849 0.0343781 
5.107 6.19 6.04 0.5129 0.5058 11.83 96.5545 0.807979 0.722892 
5.115 7.55 7.45 0.7271 0.7816 11.79 96.2245 1.57893 0.999967 
5.124 5.75 5.68 1.1069 1.1147 11.82 95.8546 2.4431 0.643066 
5.132 2.20 2.13 1.1778 1.2141 11.86 95.527 3.20846 -0.0668171 
5.140 -1.17 -1.21 1.0793 1.0102 11.86 95.2005 3.97121 -0.73767 
5.148 -2.47 -2.53 0.7843 0.7662 11.85 94.8751 4.73134 -0.99982 
5.157 -0.69 -0.75 0.5105 0.4852 11.86 94.5104 5.5834 -0.644057 
5.165 2.81 2.74 0.4326 0.3781 11.87 94.1874 0.0548388 0.0548114 
5.173 6.14 6.08 0.5213 0.5217 11.82 93.8655 0.806889 0.722138 
5.182 7.53 7.44 0.7481 0.8266 11.78 93.5046 1.64987 0.996875 
5.190 5.93 5.84 1.0604 1.0888 11.81 93.1851 2.39647 0.678061 
5.199 2.09 2.00 1.2161 1.0551 11.86 92.8269 3.23334 -0.0916232 
5.207 -1.16 -1.24 1.0274 1.0590 11.86 92.5096 3.97453 -0.739911 
5.215 -2.46 -2.54 0.7735 0.6650 11.85 92.1934 4.71318 -1 
5.224 -0.83 -0.92 0.4631 0.4872 11.86 91.839 5.54115 -0.675788 
5.233 2.97 2.85 0.3323 0.3968 11.86 91.486 0.0827519 0.0826575 
5.241 6.19 6.07 0.4383 0.4940 11.81 91.1733 0.813232 0.726512 
5.250 7.54 7.45 0.7527 0.7451 11.77 90.8228 1.63204 0.998125 
5.258 6.09 5.97 1.0927 0.9959 11.81 90.5124 2.35722 0.706379 
5.267 2.39 2.33 1.2278 1.1953 11.87 90.1645 3.17009 -0.028498 
5.276 -1.17 -1.26 1.0477 0.9878 11.86 89.8179 3.97984 -0.743473 
5.285 -2.44 -2.53 0.7122 0.7830 11.84 89.4726 4.78647 -0.997257 
5.293 -0.96 -1.08 0.5704 0.4503 11.86 89.1668 5.50088 -0.704918 
5.302 2.65 2.53 0.3265 0.3459 11.86 88.8241 0.0184795 0.0184785 
5.311 6.20 6.08 0.4974 0.4386 11.81 88.4826 0.816188 0.72854 
5.320 7.56 7.43 0.8584 0.8088 11.77 88.1425 1.61083 0.999199 
5.329 5.93 5.81 1.0294 1.0270 11.82 87.8036 2.40242 0.673679 
5.338 2.30 2.21 1.2618 1.2054 11.86 87.4661 3.19096 -0.0493484 
5.347 -1.17 -1.24 1.0734 1.1296 11.86 87.1299 3.97647 -0.741217 
5.356 -2.46 -2.53 0.7520 0.7199 11.84 86.7949 4.75897 -0.998915 
5.365 -0.85 -0.92 0.4245 0.3642 11.85 86.4613 5.53845 -0.677776 
5.374 2.69 2.62 0.3184 0.2831 11.86 86.1289 0.0317551 0.0317498 
5.383 6.14 6.07 0.5212 0.4930 11.81 85.7978 0.805259 0.72101 
5.392 7.55 7.45 0.7157 0.7274 11.77 85.468 1.57579 0.999988 
5.402 5.80 5.74 1.2123 1.0859 11.81 85.103 2.42846 0.654205 
5.411 2.28 2.21 1.1479 1.2440 11.86 84.7759 3.19275 -0.0511374 
5.420 -1.10 -1.16 1.0826 1.0358 11.86 84.45 3.95411 -0.726017 
5.429 -2.48 -2.52 0.7499 0.7637 11.84 84.1254 4.71253 -1 
5.439 -0.82 -0.85 0.3729 0.4479 11.86 83.7661 5.55181 -0.667895 
5.448 2.63 2.58 0.2773 0.3299 11.86 83.4441 0.0209076 0.0209061 
5.458 6.28 6.25 0.4934 0.5183 11.81 83.0878 0.853388 0.753512 
5.467 7.51 7.48 0.7337 0.7523 11.78 82.7684 1.59958 0.999586 
5.477 5.79 5.77 1.2127 1.1604 11.82 82.4149 2.42532 0.656579 
5.486 2.39 2.37 1.1981 1.2207 11.86 82.0981 3.16547 -0.0238733 
5.496 -1.22 -1.24 1.0779 1.0868 11.86 81.7476 3.98452 -0.746594 
5.505 -2.49 -2.51 0.8322 0.7427 11.84 81.4333 4.71868 -0.99998 
5.515 -0.92 -0.91 0.3809 0.3562 11.86 81.0856 5.5311 -0.683166 
5.525 2.80 2.76 0.3096 0.2820 11.86 80.7393 0.0568606 0.05683 
5.535 6.33 6.26 0.4920 0.6003 11.82 80.3945 0.862356 0.759378 
5.544 7.53 7.46 0.8405 0.7909 11.79 80.0855 1.58436 0.999908 
5.554 5.96 5.92 1.0661 1.1534 11.82 79.7435 2.38333 0.687659 
5.564 2.35 2.28 1.2498 1.2658 11.86 79.4029 3.17889 -0.0372925 
5.574 -1.15 -1.22 1.0738 1.1337 11.86 79.0639 3.97106 -0.73757 
5.584 -2.46 -2.53 0.7293 0.6205 11.84 78.7262 4.75984 -0.998875 
5.594 -0.82 -0.91 0.4272 0.4075 11.86 78.3901 5.54525 -0.672762 
5.604 2.77 2.67 0.2687 0.2866 11.87 78.0553 0.0441229 0.0441086 
5.614 6.23 6.10 0.5222 0.5131 11.82 77.722 0.822841 0.733081 
5.624 7.56 7.43 0.8205 0.7180 11.78 77.3901 1.59823 0.999624 
5.634 6.02 5.95 1.1640 1.1191 11.82 77.0596 2.37032 0.697051 
5.645 2.17 2.09 1.3163 1.2851 11.86 76.6977 3.2158 -0.0741391 
5.655 -1.18 -1.26 1.0104 1.0350 11.86 76.3702 3.98097 -0.74423 
5.665 -2.47 -2.52 0.7872 0.7562 11.85 76.0441 4.74288 -0.999535 
5.675 -1.00 -1.04 0.3646 0.3942 11.85 75.7193 5.50153 -0.704452 
5.686 2.78 2.71 0.2670 0.2780 11.86 75.3637 0.0491263 0.0491066 
5.696 6.12 6.05 0.4557 0.4997 11.81 75.0419 0.800992 0.718047 
5.707 7.51 7.47 0.9030 0.8357 11.78 74.6895 1.62434 0.998567 
5.717 6.02 5.95 1.1131 1.1543 11.82 74.3705 2.36948 0.697653 
5.728 2.31 2.25 1.2928 1.3329 11.87 74.0212 3.18546 -0.0438486 
5.739 -1.25 -1.30 1.1090 1.0987 11.86 73.6736 3.9976 -0.755233 
5.749 -2.48 -2.52 0.7166 0.7359 11.85 73.359 4.73261 -0.999796 
5.760 -0.86 -0.93 0.3389 0.3730 11.86 73.0145 5.53749 -0.678484 
5.771 2.83 2.73 0.2432 0.2699 11.86 72.6716 0.0554034 0.0553751 
5.782 6.30 6.23 0.4699 0.5335 11.80 72.3303 0.852742 0.753087 
5.792 7.54 7.46 0.7937 0.8055 11.78 72.0214 1.57434 0.999994 
5.803 6.04 5.97 1.1581 1.1986 11.82 71.6832 2.36455 0.701174 
5.814 2.49 2.42 1.3563 1.2366 11.86 71.3465 3.15104 -0.00944991 
5.825 -1.04 -1.08 1.0936 1.1050 11.85 71.0115 3.93384 -0.711935 
5.836 -2.49 -2.51 0.7939 0.7680 11.84 70.678 4.71297 -1 
5.848 -0.78 -0.85 0.3129 0.3332 11.86 70.3159 5.55875 -0.662715 
5.859 2.78 2.69 0.2098 0.2210 11.85 69.9857 0.0470535 0.0470362 
5.870 6.17 6.10 0.4781 0.4847 11.81 69.657 0.814923 0.727673 
5.881 7.52 7.48 0.9221 1.0372 11.78 69.3299 1.57919 0.999965 
5.893 5.88 5.81 1.3483 1.2449 11.82 68.9748 2.40883 0.668922 
5.904 2.40 2.36 1.3562 1.2549 11.86 68.6508 3.16561 -0.0240173 
5.916 -1.22 -1.26 1.0854 1.0006 11.86 68.2992 3.98713 -0.748331 
5.927 -2.48 -2.52 0.7477 0.7218 11.84 67.9784 4.7365 -0.999709 
5.939 -0.81 -0.88 0.2944 0.3492 11.86 67.6302 5.54998 -0.669258 
5.950 2.59 2.50 0.1612 0.2302 11.86 67.3126 0.00881642 0.0088163 
5.962 6.18 6.09 0.4791 0.5020 11.81 66.9678 0.814325 0.727263 
5.974 7.53 7.46 0.7754 0.8942 11.78 66.6248 1.61571 0.998992 
5.986 5.86 5.79 1.2541 1.1965 11.82 66.2836 2.41299 0.665831 
5.998 2.20 2.16 1.3363 1.3487 11.87 65.944 3.20618 -0.0645418 
6.009 -1.02 -1.06 1.1453 1.2611 11.86 65.6343 3.9297 -0.709023 
6.021 -2.49 -2.51 0.6853 0.7087 11.84 65.2981 4.71513 -0.999996 
6.034 -0.77 -0.83 0.2709 0.3363 11.86 64.9359 5.56147 -0.660676 
6.046 2.81 2.74 0.1657 0.1779 11.86 64.6033 0.0553486 0.0553203 
6.058 6.22 6.15 0.5329 0.4586 11.82 64.2724 0.828435 0.736874 
6.070 7.54 7.45 0.9111 0.8888 11.79 63.9431 1.59756 0.999642 
6.082 6.04 5.98 1.2879 1.2281 11.83 63.6156 2.36275 0.702457 
6.095 2.31 2.24 1.2366 1.2333 11.86 63.2627 3.18728 -0.0456709 
6.107 -1.06 -1.13 1.0953 1.0759 11.86 62.9386 3.94432 -0.719256 
6.120 -2.45 -2.54 0.5973 0.6316 11.84 62.5895 4.76008 -0.998863 
6.132 -0.92 -1.07 0.2501 0.3137 11.86 62.2689 5.50907 -0.699086 
6.145 2.74 2.59 0.1609 0.1564 11.86 61.9234 0.0329573 0.0329513 
6.158 6.27 6.14 0.4963 0.4664 11.81 61.5799 0.835555 0.741669 
6.170 7.55 7.45 0.9482 0.9028 11.78 61.2644 1.57246 0.999999 
6.183 6.05 5.95 1.2784 1.2037 11.82 60.9246 2.36652 0.69977 
6.196 2.45 2.40 1.3830 1.3867 11.87 60.5866 3.15617 -0.0145755 
6.209 -1.05 -1.12 1.1020 1.1690 11.86 60.2504 3.94144 -0.717249 
6.222 -2.47 -2.52 0.6632 0.6718 11.85 59.9162 4.72235 -0.99995 
6.235 -1.01 -1.05 0.2647 0.2681 11.86 59.5838 5.49893 -0.706296 
6.249 2.77 2.70 0.1226 0.1735 11.85 59.2278 0.0472485 0.047231 
6.262 6.17 6.10 0.4704 0.4625 11.81 58.8993 0.814909 0.727663 
6.275 7.52 7.48 0.8720 0.7967 11.76 58.5725 1.57831 0.999972 
6.289 5.92 5.87 1.3623 1.3192 11.83 58.2226 2.3957 0.678629 
6.302 2.48 2.44 1.4224 1.3649 11.86 57.8996 3.15033 -0.00873635 
6.316 -1.12 -1.16 1.1187 1.1327 11.86 57.5538 3.95833 -0.728914 
6.330 -2.47 -2.51 0.5084 0.6292 11.83 57.21 4.7615 -0.998794 
6.343 -0.97 -1.06 0.2228 0.2258 11.86 56.8926 5.50301 -0.703407 
6.357 2.63 2.51 0.0904 0.1315 11.85 56.5527 0.0137641 0.0137636 
6.371 6.16 6.04 0.4648 0.4534 11.80 56.2149 0.802966 0.71942 
6.385 7.55 7.45 0.9972 0.8749 11.79 55.8791 1.58745 0.999861 
6.399 6.05 5.95 1.3209 1.3396 11.83 55.5453 2.36726 0.699242 
6.413 2.52 2.47 1.4652 1.4236 11.87 55.2136 3.1424 -0.000808088 
6.428 -1.15 -1.20 1.2231 1.1406 11.85 54.8603 3.96777 -0.735349 
6.442 -2.48 -2.52 0.5988 0.6396 11.84 54.5326 4.73336 -0.99978 
6.457 -0.83 -0.87 0.1598 0.1432 11.86 54.1836 5.54855 -0.670315 
6.471 2.64 2.57 0.0856 0.0994 11.85 53.86 0.0215084 0.0215067 
6.486 6.24 6.12 0.4131 0.5146 11.81 53.5153 0.826648 0.735665 
6.500 7.56 7.43 1.0621 0.9364 11.79 53.1957 1.57346 0.999996 
6.515 6.04 5.94 1.2833 1.3737 11.83 52.8553 2.36867 0.698228 
6.530 2.45 2.37 1.4404 1.4492 11.87 52.5171 3.15879 -0.0172007 
6.545 -1.05 -1.13 1.1261 1.1939 11.86 52.1811 3.94386 -0.718934 
6.560 -2.45 -2.55 0.5828 0.6047 11.84 51.8472 4.7239 -0.999934 
6.575 -0.96 -1.10 0.1516 0.1779 11.86 51.5154 5.49895 -0.706283 
6.591 2.75 2.62 0.0415 0.0814 11.85 51.1639 0.0370209 0.0370124 
6.606 6.15 6.04 0.4825 0.4134 11.81 50.8365 0.801858 0.718649 
6.622 7.55 7.44 0.9710 1.0247 11.79 50.4896 1.61229 0.999139 
6.637 6.03 5.97 1.3249 1.3790 11.83 50.1665 2.36705 0.699391 
6.653 2.39 2.36 1.4573 1.4806 11.87 49.8242 3.1668 -0.0252037 
6.669 -1.14 -1.17 1.1248 1.1896 11.86 49.4842 3.96109 -0.730806 
6.685 -2.48 -2.51 0.5012 0.5791 11.84 49.1466 4.74997 -0.999294 
6.701 -0.85 -0.96 0.1165 0.1459 11.86 48.8112 5.53346 -0.681436 
6.717 2.70 2.59 0.0309 0.0405 11.85 48.4781 0.0284225 0.0284187 
6.733 6.15 6.04 0.4123 0.4865 11.80 48.1473 0.801258 0.718232 
6.750 7.54 7.45 1.1330 1.0122 11.79 47.7983 1.61662 0.99895 
6.766 5.97 5.94 1.4501 1.3227 11.83 47.4722 2.37862 0.691076 
6.783 2.31 2.28 1.4777 1.3531 11.87 47.128 3.18254 -0.040937 
6.799 -1.04 -1.08 1.1614 1.0742 11.85 46.8065 3.93385 -0.711943 
6.816 -2.46 -2.54 0.5065 0.5770 11.84 46.4672 4.72651 -0.9999 
6.833 -0.92 -1.04 0.0846 0.1423 11.85 46.1303 5.51341 -0.695972 
6.850 2.64 2.48 0.0185 0.0216 11.85 45.796 0.0114304 0.0114302 
6.867 6.11 5.97 0.5034 0.4976 11.79 45.464 0.786971 0.708218 
6.885 7.55 7.44 1.0646 1.1634 11.79 45.1151 1.602 0.999513 
6.902 6.03 5.97 1.5001 1.4691 11.83 44.7881 2.36601 0.700129 
6.920 2.38 2.35 1.5154 1.5059 11.87 44.4444 3.16893 -0.0273361 
6.938 -1.16 -1.18 1.0632 1.0667 11.85 44.1034 3.96569 -0.733934 
6.955 -2.48 -2.52 0.5954 0.5222 11.84 43.7837 4.71256 -1 
6.974 -0.83 -0.93 0.0578 0.0769 11.86 43.4291 5.5409 -0.675971 
6.992 2.76 2.60 -0.0371 0.0392 11.85 43.0959 0.0362741 0.0362662 
7.010 6.18 6.05 0.5501 0.5159 11.81 42.7652 0.808855 0.723497 
7.028 7.54 7.46 1.0786 1.1288 11.80 42.437 1.57551 0.999989 
7.047 5.98 5.93 1.5794 1.5634 11.83 42.0934 2.37837 0.691254 
7.066 2.35 2.32 1.5564 1.4579 11.87 41.7525 3.17473 -0.0331316 
7.085 -1.16 -1.17 1.0055 1.0132 11.86 41.4144 3.96464 -0.733223 
7.104 -2.48 -2.52 0.4459 0.4095 11.84 41.079 4.74816 -0.99936 
7.123 -0.89 -0.98 0.0418 0.0600 11.86 40.7463 5.52533 -0.687367 
7.142 2.64 2.49 -0.0763 -0.0332 11.86 40.4164 0.0130193 0.0130189 
7.162 6.23 6.07 0.5792 0.5474 11.81 40.0719 0.817725 0.729592 
7.181 7.58 7.42 1.1018 1.1047 11.80 39.7474 1.57584 0.999987 
7.201 6.04 5.95 1.4982 1.5692 11.84 39.4087 2.36723 0.699261 
7.221 2.49 2.40 1.5612 1.5900 11.87 39.0728 3.15187 -0.0102796 
7.241 -1.01 -1.08 1.0359 1.1145 11.85 38.7398 3.92983 -0.70911 
7.262 -2.44 -2.56 0.3938 0.3975 11.83 38.3932 4.73955 -0.999631 
7.282 -0.94 -1.09 -0.0443 -0.0602 11.86 38.066 5.50397 -0.702721 
7.303 2.68 2.48 -0.0842 -0.0466 11.85 37.7255 0.0164201 0.0164193 
7.324 6.21 6.00 0.7062 0.4673 11.80 37.388 0.804937 0.720787 
7.345 7.60 7.40 1.3503 1.2132 11.80 37.0535 1.5864 0.999878 
7.366 6.11 5.93 1.5901 1.5248 11.84 36.722 2.36087 0.703792 
7.388 2.43 2.34 1.5721 1.5164 11.87 36.3779 3.16479 -0.0231961 
7.410 -1.12 -1.19 1.0677 1.1051 11.85 36.037 3.96118 -0.730862 
7.431 -2.48 -2.52 0.3742 0.3677 11.84 35.7146 4.7144 -0.999998 
7.454 -0.89 -0.94 -0.1062 -0.1335 11.86 35.3648 5.53163 -0.682774 
7.476 2.62 2.60 -0.0539 -0.0593 11.85 35.0334 0.0226557 0.0226537 
7.498 6.03 6.07 0.6717 0.5088 11.81 34.7051 0.789609 0.710078 
7.521 7.47 7.53 1.3397 1.2258 11.81 34.3652 1.58374 0.999916 
7.544 5.94 6.03 1.7110 1.5435 11.85 34.0286 2.37009 0.69721 
7.567 2.45 2.48 1.5057 1.6441 11.87 33.6953 3.14875 -0.00715235 
7.591 -1.11 -1.14 1.0509 1.0737 11.86 33.351 3.95312 -0.72534 
7.614 -2.45 -2.55 0.2789 0.3074 11.85 33.0243 4.71627 -0.999992 
7.638 -0.91 -1.11 -0.2103 -0.1901 11.86 32.6869 5.50463 -0.702254 
7.662 2.61 2.40 -0.0744 -0.0798 11.85 32.3529 0.00174397 0.00174397 
7.687 6.18 6.04 0.6522 0.6031 11.81 32.0086 0.806083 0.721581 
7.712 7.54 7.45 1.4267 1.3661 11.80 31.668 1.60186 0.999518 
7.736 6.05 6.01 1.7977 1.6117 11.85 31.3444 2.35784 0.705942 
7.762 2.38 2.35 1.5820 1.6371 11.86 30.9976 3.1681 -0.0265084 
7.787 -1.07 -1.09 1.0321 1.0858 11.86 30.6677 3.93875 -0.715371 
7.813 -2.44 -2.56 0.1585 0.2599 11.84 30.3284 4.73152 -0.999817 
7.839 -0.91 -1.04 -0.1898 -0.2524 11.86 29.9928 5.51552 -0.69446 
7.865 2.58 2.50 -0.0752 -0.0623 11.85 29.6609 0.00765389 0.00765381 
7.892 6.12 6.07 0.6888 0.7117 11.80 29.3202 0.803719 0.719942 
7.919 7.50 7.50 1.4271 1.4557 11.81 28.9833 1.59064 0.999803 
7.946 5.98 6.00 1.6915 1.7071 11.85 28.6504 2.36852 0.698339 
7.974 2.40 2.36 1.6138 1.5424 11.87 28.3091 3.16577 -0.0241755 
8.002 -1.07 -1.19 0.9713 0.9458 11.86 27.9719 3.95353 -0.725619 
8.030 -2.40 -2.60 0.1521 0.1852 11.85 27.6387 4.7319 -0.99981 
8.058 -0.87 -1.18 -0.2996 -0.2877 11.86 27.3095 5.501 -0.70483 
8.087 2.66 2.39 -0.0562 -0.0933 11.85 26.9727 0.00473088 0.00473086 
8.117 6.15 6.08 0.7910 0.7292 11.82 26.6286 0.808568 0.723299 
8.146 7.49 7.51 1.4867 1.4728 11.82 26.3002 1.57586 0.999987 
8.176 5.97 6.07 1.7439 1.8515 11.85 25.9647 2.35966 0.704654 
8.207 2.39 2.43 1.5547 1.7102 11.87 25.6225 3.15908 -0.0174831 
8.238 -1.08 -1.14 0.8507 0.9988 11.86 25.2849 3.94796 -0.721778 
8.269 -2.40 -2.60 0.0654 0.0920 11.85 24.9516 4.72645 -0.999901 
8.301 -0.79 -1.13 -0.3456 -0.3431 11.87 24.6123 5.51929 -0.69174 
8.333 2.75 2.43 -0.0628 -0.0861 11.85 24.2775 0.01816 0.018159 
8.365 6.13 5.97 0.8183 0.7677 11.82 23.9473 0.78958 0.710058 
8.398 7.53 7.47 1.6098 1.4399 11.81 23.6115 1.57412 0.999994 
8.432 5.96 6.00 2.0514 1.9317 11.85 23.2704 2.37093 0.696612 
8.466 2.42 2.43 1.5491 1.6142 11.87 22.9343 3.15623 -0.0146337 
8.500 -1.02 -1.07 0.8806 0.9554 11.85 22.603 3.93018 -0.70936 
8.535 -2.42 -2.58 0.0366 0.0490 11.85 22.267 4.71522 -0.999996 
8.571 -0.81 -1.17 -0.3787 -0.4092 11.86 21.9266 5.51052 -0.698045 
8.607 2.69 2.41 -0.0394 -0.0941 11.85 21.5914 0.0104763 0.0104761 
8.644 6.15 6.05 0.9441 0.8693 11.83 21.2522 0.802895 0.71937 
8.681 7.49 7.51 1.7194 1.6544 11.83 20.9183 1.58287 0.999927 
8.719 5.96 6.00 2.0080 2.0593 11.85 20.5809 2.37116 0.696442 
8.757 2.47 2.48 1.5497 1.7116 11.87 20.2489 3.14675 -0.00515491 
8.796 -1.00 -1.09 0.7885 0.7724 11.86 19.9138 3.92973 -0.709043 
8.836 -2.40 -2.60 -0.1501 -0.1154 11.85 19.5758 4.71934 -0.999976 
8.877 -0.88 -1.07 -0.4563 -0.4829 11.87 19.2353 5.51477 -0.694995 
8.918 2.62 2.52 0.0650 -0.0471 11.85 18.9008 0.0131904 0.0131901 
8.960 6.07 6.10 0.9927 1.0104 11.83 18.5641 0.799762 0.71719 
9.002 7.44 7.55 1.6336 1.7679 11.83 18.2334 1.57232 0.999999 
9.046 5.97 6.03 2.1254 2.0890 11.86 17.8933 2.36691 0.699486 
9.090 2.55 2.40 1.5746 1.6367 11.88 17.5595 3.14669 -0.00509245 
9.135 -0.88 -1.20 0.6806 0.6940 11.86 17.2246 3.92913 -0.708621 
9.181 -2.32 -2.68 -0.2396 -0.3241 11.85 16.8888 4.71355 -0.999999 
9.228 -0.91 -1.15 -0.4126 -0.6143 11.86 16.5525 5.49923 -0.706086 
9.276 2.52 2.50 0.0308 -0.0356 11.85 16.216 0.00229233 0.00229233 
9.325 5.97 6.12 1.0121 0.9763 11.83 15.8795 0.788434 0.70925 
9.375 7.42 7.58 1.8837 1.7501 11.83 15.5433 1.5738 0.999995 
9.426 6.04 6.02 2.1046 2.2304 11.86 15.2077 2.35776 0.706001 
9.479 2.58 2.29 1.5115 1.6910 11.87 14.8667 3.15453 -0.0129325 
9.532 -0.88 -1.23 0.4700 0.4865 11.86 14.5333 3.93342 -0.711641 
9.587 -2.41 -2.58 -0.3747 -0.4394 11.86 14.1952 4.72325 -0.999941 
9.643 -0.98 -1.01 -0.5297 -0.4797 11.87 13.8591 5.50857 -0.699443 
9.700 2.48 2.57 0.1069 0.1385 11.86 13.5251 0.00562447 0.00562444 
9.759 6.01 6.11 1.1548 1.2154 11.83 13.1879 0.793447 0.712775 
9.819 7.51 7.49 1.9857 1.9566 11.84 12.8536 1.57448 0.999993 
9.881 6.10 5.94 2.2150 2.1882 11.86 12.517 2.36075 0.703875 
9.945 2.61 2.30 1.5941 1.5658 11.87 12.1788 3.1508 -0.00921078 
10.010 -0.91 -1.19 0.3921 0.4285 11.86 11.8447 3.93135 -0.710184 
10.077 -2.46 -2.53 -0.4649 -0.5251 11.86 11.5099 4.71351 -0.999999 
10.147 -1.03 -0.98 -0.4708 -0.6299 11.87 11.1703 5.50709 -0.700498 
10.218 2.51 2.54 0.1915 0.2094 11.85 10.836 0.00490063 0.00490061 
10.293 6.03 6.10 1.3230 1.2571 11.83 10.4982 0.794029 0.713184 
10.369 7.54 7.46 2.1052 2.2007 11.85 10.1622 1.57889 0.999967 
10.447 6.14 5.92 2.2198 2.1774 11.87 9.82862 2.35829 0.705621 
10.529 2.62 2.30 1.4965 1.5176 11.88 9.4897 3.15009 -0.00850175 
10.613 -0.98 -1.14 0.2119 0.1845 11.86 9.15463 3.93291 -0.711277 
10.700 -2.47 -2.52 -0.5799 -0.6704 11.86 8.82006 4.71455 -0.999998 
10.791 -1.01 -1.03 -0.5448 -0.5559 11.86 8.48318 5.50157 -0.704424 
10.886 2.52 2.55 0.3118 0.3205 11.85 8.14521 0.00796097 0.00796089 
10.984 6.07 6.03 1.3396 1.5080 11.85 7.81068 0.789518 0.710014 
11.087 7.58 7.42 2.2293 2.2726 11.85 7.47387 1.57638 0.999984 
11.194 6.18 5.88 2.3198 2.1814 11.87 7.13936 2.35788 0.705913 
11.307 2.59 2.37 1.4013 1.3494 11.87 6.80233 3.14527 -0.00367244 
11.425 -1.00 -1.08 0.0641 0.0485 11.86 6.46735 3.92784 -0.707709 
11.550 -2.48 -2.52 -0.6829 -0.6924 11.86 6.13048 4.71485 -0.999997 
11.682 -1.04 -1.01 -0.5071 -0.4526 11.87 5.79378 5.50148 -0.704493 
11.822 2.49 2.56 0.4365 0.4773 11.87 5.45685 0.00542992 0.00542989 
11.970 6.08 6.01 1.4986 1.5299 11.84 5.12195 0.787833 0.708826 
12.129 7.59 7.41 2.4607 2.3569 11.86 4.78503 1.57497 0.999991 
12.299 6.14 5.91 2.3487 2.2920 11.87 4.44928 2.35937 0.704858 
12.482 2.56 2.43 1.1525 1.1130 11.87 4.11413 3.14235 -0.000760404 
12.681 -1.03 -1.04 -0.1114 -0.1254 11.87 3.77827 3.927 -0.707116 
12.900 -2.48 -2.52 -0.8045 -0.7516 11.87 3.44173 4.71324 -1 
13.140 -1.05 -1.02 -0.3979 -0.4588 11.87 3.10578 5.49809 -0.706895 
13.408 2.49 2.52 0.5900 0.6199 11.87 2.76925 0.00112265 0.00112265 
13.710 6.10 5.97 1.8509 1.7995 11.86 2.43351 0.78548 0.707165 
14.058 7.61 7.39 2.5350 2.5130 11.86 2.0968 1.57213 0.999999 
14.466 6.13 5.93 2.1393 2.1779 11.87 1.76087 2.35693 0.706583 
