%  1    time 0.000 sec
%  2    mission (0) state 2
%  3  4 Motor velocity ref left, right: 30.00 30.00
%  5  6 Motor voltage [V] left, right: 12.1 12.1
%  7 10 Motor current left, right [A]: 0.002 -0.002 675 677
% 11 12 Encoder left, right: 8879 7678
% 13 14 Wheel velocity [r/s] left, right: 0.0000 0.0000
% 15    Battery voltage [V]: 12.06
0.001 2 30.00 30.00 12.1 12.1 0.951 -0.868 877 523 8879 7678 0.0000 0.0000 12.06 
0.002 2 30.00 30.00 10.3 10.3 2.283 -2.094 1023 349 8880 7678 0.0037 0.0000 10.28 
0.003 2 30.00 30.00 10.3 10.3 2.283 -2.283 1023 264 8880 7678 0.0037 0.0000 10.28 
0.004 2 30.00 30.00 10.3 10.3 2.283 -2.283 1023 238 8880 7679 0.0037 0.0000 10.28 
0.005 2 30.00 30.00 10.3 10.3 2.283 -2.283 1023 252 8881 7680 5.3875 0.0000 10.28 
0.006 2 30.00 30.00 10.3 10.3 2.283 -2.283 1023 271 8882 7680 9.5230 9.4564 10.28 
0.007 2 30.00 30.00 8.3 8.3 2.234 -2.283 1017 280 8883 7682 11.4599 12.7573 8.26 
0.008 2 30.00 30.00 8.3 8.3 2.283 -2.283 1023 280 8884 7683 12.8788 15.0252 8.26 
0.009 2 30.00 30.00 8.3 8.3 2.283 -2.283 1023 285 8885 7684 14.2344 16.6947 8.26 
0.010 2 30.00 30.00 8.3 8.0 2.283 -2.283 1023 294 8886 7686 15.5433 20.1831 8.26 
0.011 2 30.00 30.00 8.3 7.8 2.283 -1.893 1023 415 8888 7688 18.7815 20.8041 8.26 
0.012 2 30.00 30.00 7.9 6.9 2.283 -2.004 1023 385 8890 7689 20.4889 22.9198 8.50 
0.013 2 30.00 30.00 7.0 6.0 1.828 -1.647 958 381 8891 7691 22.5378 25.0420 8.50 
0.014 2 30.00 30.00 6.1 5.3 1.871 -1.388 993 398 8893 7693 24.5867 26.5151 8.50 
0.015 2 30.00 30.00 5.5 4.2 1.926 -0.897 1000 493 8895 7696 26.0052 28.7717 8.50 
0.016 2 30.00 30.00 4.8 3.9 2.018 -0.632 1014 508 8898 7698 27.5973 29.3972 8.50 
0.017 2 30.00 30.00 4.2 3.3 1.288 -0.498 884 515 8900 7700 28.7717 30.7334 11.91 
0.018 2 30.00 30.00 3.3 2.9 0.926 -0.252 836 574 8902 7702 30.7334 31.4481 11.91 
0.019 2 30.00 30.00 2.9 2.5 0.504 -0.096 770 639 8904 7705 31.4481 32.1969 11.91 
0.020 2 30.00 30.00 2.5 2.5 0.156 -0.051 713 669 8907 7707 32.1969 32.1969 11.91 
0.021 2 30.00 30.00 2.5 2.5 0.045 -0.038 683 681 8909 7709 32.1969 32.1969 11.91 
0.022 2 30.00 30.00 2.5 2.5 0.036 -0.038 668 677 8911 7712 32.1969 32.1969 12.04 
0.023 2 30.00 30.00 2.4 2.4 0.036 -0.033 670 677 8914 7714 32.1969 32.1969 12.04 
0.024 2 30.00 30.00 2.0 2.8 0.033 -0.031 667 684 8916 7716 32.9822 31.4481 12.04 
0.025 2 30.00 30.00 2.0 2.4 0.033 -0.038 655 677 8918 7719 32.9822 32.1969 12.04 
0.026 2 30.00 30.00 1.5 2.7 0.033 -0.036 649 678 8921 7721 33.8067 31.4481 12.04 
0.027 2 30.00 30.00 1.9 2.3 0.036 -0.033 650 676 8923 7723 32.9822 32.1969 12.06 
0.028 2 30.00 30.00 1.9 2.3 0.036 -0.033 643 684 8925 7725 32.9822 32.1969 12.06 
0.029 2 30.00 30.00 2.2 2.3 0.036 -0.033 641 679 8928 7728 32.1969 32.1969 12.06 
0.030 2 30.00 30.00 2.2 2.3 0.033 -0.031 650 681 8930 7730 32.1969 32.1969 12.06 
0.031 2 30.00 30.00 2.1 2.6 0.033 -0.025 667 684 8932 7732 32.1969 31.4481 12.06 
0.032 2 30.00 30.00 2.5 2.2 0.031 -0.033 654 674 8934 7734 31.4481 32.1969 12.04 
0.033 2 30.00 30.00 2.8 2.5 0.033 -0.033 663 685 8937 7736 30.7334 31.4481 12.04 
0.034 2 30.00 30.00 2.8 2.5 0.025 -0.031 675 681 8939 7739 30.7334 31.4481 12.04 
0.035 2 30.00 30.00 3.1 2.9 0.020 -0.033 679 683 8941 7741 30.0504 30.7334 12.04 
0.036 2 30.00 30.00 3.1 3.2 0.016 -0.038 683 670 8943 7743 30.0504 30.0504 12.04 
0.037 2 30.00 30.00 3.1 3.5 0.011 -0.040 689 653 8945 7745 30.0504 29.3972 12.04 
0.038 2 30.00 30.00 3.1 3.5 0.011 -0.045 685 662 8947 7747 30.0504 29.3972 12.04 
0.039 2 30.00 30.00 3.1 4.4 0.013 -0.051 688 648 8950 7749 30.0504 27.5973 12.04 
0.040 2 30.00 30.00 3.1 3.9 0.013 -0.083 687 636 8952 7751 30.0504 28.7717 12.04 
0.041 2 30.00 30.00 3.1 4.2 0.004 -0.094 695 628 8954 7753 30.0504 28.1723 12.04 
0.042 2 30.00 30.00 3.1 3.9 0.009 -0.096 695 624 8956 7755 30.0504 28.7717 12.01 
0.043 2 30.00 30.00 3.1 3.9 0.016 -0.103 686 626 8958 7757 30.0504 28.7717 12.01 
0.044 2 30.00 30.00 3.1 3.6 0.009 -0.087 690 635 8960 7759 30.0504 29.3972 12.01 
0.045 2 30.00 30.00 3.1 3.6 0.009 -0.069 692 635 8962 7762 30.0504 29.3972 12.01 
0.046 2 30.00 30.00 3.1 4.2 0.011 -0.065 681 641 8964 7764 30.0504 28.1723 12.01 
0.047 2 30.00 30.00 3.1 3.3 0.009 -0.087 687 628 8967 7766 30.0504 30.0504 12.02 
0.048 2 30.00 30.00 2.8 4.0 0.011 -0.074 692 633 8969 7768 30.7334 28.7717 12.02 
0.049 2 30.00 30.00 3.1 3.4 0.011 -0.071 686 642 8971 7770 30.0504 30.0504 12.02 
0.050 2 30.00 30.00 2.8 3.0 0.016 -0.062 685 648 8973 7773 30.7334 30.7334 12.02 
0.051 2 30.00 30.00 3.7 3.0 0.013 -0.049 683 654 8975 7775 28.7717 30.7334 12.02 
0.052 2 30.00 30.00 3.4 3.0 0.009 -0.045 699 666 8977 7777 29.3972 30.7334 12.04 
0.053 2 30.00 30.00 3.1 3.3 0.004 -0.042 704 669 8980 7779 30.0504 30.0504 12.04 
0.054 2 30.00 30.00 2.8 3.0 0.004 -0.042 699 668 8982 7781 30.7334 30.7334 12.04 
0.055 2 30.00 30.00 3.1 3.3 0.013 -0.045 694 661 8984 7783 30.0504 30.0504 12.04 
0.056 2 30.00 30.00 3.1 3.3 0.007 -0.047 692 660 8986 7786 30.0504 30.0504 12.04 
0.057 2 30.00 30.00 3.4 3.3 0.009 -0.042 690 656 8988 7788 29.3972 30.0504 11.99 
0.058 2 30.00 30.00 3.4 3.6 0.009 -0.049 695 646 8990 7790 29.3972 29.3972 11.99 
0.059 2 30.00 30.00 3.5 3.3 0.007 -0.056 695 647 8992 7792 29.3972 30.0504 11.99 
0.060 2 30.00 30.00 3.5 3.3 0.011 -0.054 698 650 8994 7794 29.3972 30.0504 11.99 
0.061 2 30.00 30.00 3.5 3.3 0.002 -0.049 703 653 8997 7796 29.3972 30.0504 11.99 
0.062 2 30.00 30.00 3.5 3.6 0.004 -0.051 702 648 8999 7798 29.3972 29.3972 12.02 
0.063 2 30.00 30.00 3.5 3.3 0.013 -0.054 707 645 9001 7800 29.3972 30.0504 12.02 
0.064 2 30.00 30.00 3.2 3.7 0.011 -0.045 704 652 9003 7803 30.0504 29.3972 12.02 
0.065 2 30.00 30.00 3.2 3.7 0.004 -0.056 698 650 9005 7805 30.0504 29.3972 12.02 
0.066 2 30.00 30.00 3.2 4.0 0.009 -0.058 688 645 9007 7807 30.0504 28.7717 12.02 
0.067 2 30.00 30.00 3.2 3.4 0.007 -0.069 697 637 9010 7809 30.0504 30.0504 12.04 
0.068 2 30.00 30.00 2.8 3.7 0.009 -0.062 691 642 9012 7811 30.7334 29.3972 12.04 
0.069 2 30.00 30.00 2.8 3.0 0.011 -0.060 683 645 9014 7814 30.7334 30.7334 12.04 
0.070 2 30.00 30.00 2.5 4.0 0.018 -0.051 680 652 9016 7815 31.4481 28.7717 12.04 
0.071 2 30.00 30.00 2.8 3.7 0.018 -0.058 679 642 9018 7818 30.7334 29.3972 12.04 
0.072 2 30.00 30.00 2.8 3.1 0.027 -0.065 678 640 9021 7820 30.7334 30.7334 12.04 
0.073 2 30.00 30.00 4.0 3.0 0.025 -0.054 677 648 9023 7822 28.1723 30.7334 12.04 
0.074 2 30.00 30.00 3.5 3.0 0.009 -0.045 699 659 9025 7824 29.3972 30.7334 12.04 
0.075 2 30.00 30.00 3.1 3.0 0.013 -0.040 704 669 9027 7827 30.0504 30.7334 12.04 
0.076 2 30.00 30.00 2.8 3.3 0.007 -0.042 701 664 9029 7829 30.7334 30.0504 12.04 
0.077 2 30.00 30.00 3.1 3.3 0.013 -0.045 691 654 9031 7831 30.0504 30.0504 12.04 
0.078 2 30.00 30.00 3.1 3.3 0.009 -0.042 696 656 9034 7833 30.0504 30.0504 12.04 
0.079 2 30.00 30.00 3.1 3.7 0.009 -0.045 692 659 9036 7835 30.0504 29.3972 12.04 
0.080 2 30.00 30.00 3.5 3.7 0.016 -0.054 684 647 9038 7837 29.3972 29.3972 12.04 
0.081 2 30.00 30.00 3.5 3.4 0.013 -0.062 695 643 9040 7840 29.3972 30.0504 12.04 
0.082 2 30.00 30.00 3.5 3.4 0.007 -0.056 699 643 9042 7842 29.3972 30.0504 12.04 
0.083 2 30.00 30.00 3.5 3.4 0.004 -0.049 698 653 9044 7844 29.3972 30.0504 12.04 
0.084 2 30.00 30.00 3.2 4.0 0.002 -0.051 697 651 9047 7846 30.0504 28.7717 12.04 
0.085 2 30.00 30.00 3.2 3.4 0.007 -0.062 703 645 9049 7848 30.0504 30.0504 12.04 
0.086 2 30.00 30.00 3.2 3.4 0.007 -0.058 699 642 9051 7850 30.0504 30.0504 12.04 
0.087 2 30.00 30.00 3.2 3.4 0.004 -0.049 698 647 9053 7852 30.0504 30.0504 12.02 
0.088 2 30.00 30.00 3.2 3.4 0.009 -0.049 688 652 9055 7854 30.0504 30.0504 12.02 
0.089 2 30.00 30.00 3.2 3.4 0.007 -0.047 695 659 9057 7857 30.0504 30.0504 12.02 
0.090 2 30.00 30.00 2.8 3.4 0.011 -0.045 689 654 9059 7859 30.7334 30.0504 12.02 
0.091 2 30.00 30.00 2.8 3.4 0.013 -0.045 683 648 9062 7861 30.7334 30.0504 12.02 
0.092 2 30.00 30.00 2.5 4.3 0.022 -0.047 679 646 9064 7863 31.4481 28.1723 12.04 
0.093 2 30.00 30.00 2.8 4.0 0.020 -0.071 676 640 9066 7865 30.7334 28.7717 12.04 
0.094 2 30.00 30.00 2.4 3.4 0.029 -0.085 677 635 9068 7867 31.4481 30.0504 12.04 
0.095 2 30.00 30.00 3.7 3.4 0.036 -0.074 671 637 9070 7870 28.7717 30.0504 12.04 
0.096 2 30.00 30.00 3.4 3.1 0.013 -0.054 682 647 9073 7872 29.3972 30.7334 12.04 
0.097 2 30.00 30.00 3.1 3.1 0.004 -0.045 702 657 9075 7874 30.0504 30.7334 12.04 
0.098 2 30.00 30.00 2.8 3.4 0.004 -0.042 696 668 9077 7876 30.7334 30.0504 12.04 
0.099 2 30.00 30.00 3.1 3.1 0.013 -0.045 684 667 9079 7878 30.0504 30.7334 12.04 
0.100 2 30.00 30.00 3.1 3.0 0.011 -0.047 691 662 9081 7881 30.0504 30.7334 12.04 
0.101 2 30.00 30.00 3.1 3.0 0.009 -0.042 690 670 9083 7883 30.0504 30.7334 12.04 
0.102 2 30.00 30.00 3.4 3.0 0.007 -0.040 693 661 9086 7885 29.3972 30.7334 12.04 
0.103 2 30.00 30.00 3.4 2.7 0.011 -0.045 689 663 9088 7887 29.3972 31.4481 12.04 
0.104 2 30.00 30.00 3.4 3.0 0.007 -0.040 699 674 9090 7890 29.3972 30.7334 12.04 
0.105 2 30.00 30.00 3.4 3.0 0.002 -0.040 701 673 9092 7892 29.3972 30.7334 12.04 
0.106 2 30.00 30.00 3.1 4.2 0.004 -0.038 700 665 9094 7894 30.0504 28.1723 12.04 
0.107 2 30.00 30.00 3.1 3.7 0.007 -0.062 701 643 9096 7896 30.0504 29.3972 12.04 
0.108 2 30.00 30.00 3.1 3.7 0.011 -0.076 700 639 9099 7898 30.0504 29.3972 12.04 
0.109 2 30.00 30.00 3.1 3.7 0.011 -0.069 692 640 9101 7900 30.0504 29.3972 12.04 
0.110 2 30.00 30.00 3.1 3.7 0.011 -0.074 688 638 9103 7902 30.0504 29.3972 12.04 
0.111 2 30.00 30.00 3.1 3.7 0.007 -0.065 697 639 9105 7904 30.0504 29.3972 12.04 
0.112 2 30.00 30.00 2.8 3.7 0.009 -0.062 694 641 9107 7906 30.7334 29.3972 12.04 
0.113 2 30.00 30.00 2.8 4.0 0.013 -0.065 683 643 9109 7909 30.7334 28.7717 12.04 
0.114 2 30.00 30.00 2.8 3.4 0.016 -0.076 682 636 9112 7911 30.7334 30.0504 12.04 
0.115 2 30.00 30.00 2.4 3.7 0.020 -0.069 682 639 9114 7913 31.4481 29.3972 12.04 
0.116 2 30.00 30.00 2.4 3.1 0.025 -0.058 676 640 9116 7915 31.4481 30.7334 12.04 
0.117 2 30.00 30.00 3.7 3.1 0.031 -0.051 667 651 9118 7917 28.7717 30.7334 12.04 
0.118 2 30.00 30.00 3.4 3.1 0.016 -0.045 687 664 9120 7920 29.3972 30.7334 12.04 
0.119 2 30.00 30.00 3.1 3.0 0.007 -0.040 702 664 9122 7922 30.0504 30.7334 12.04 
0.120 2 30.00 30.00 2.8 3.4 0.009 -0.040 696 667 9125 7924 30.7334 30.0504 12.04 
0.121 2 30.00 30.00 3.1 3.0 0.018 -0.045 690 664 9127 7926 30.0504 30.7334 12.04 
0.122 2 30.00 30.00 3.4 3.4 0.011 -0.045 690 662 9129 7928 29.3972 30.0504 12.04 
0.123 2 30.00 30.00 3.1 3.4 0.013 -0.045 697 664 9131 7930 30.0504 30.0504 12.04 
0.124 2 30.00 30.00 3.4 3.4 0.009 -0.047 694 654 9133 7933 29.3972 30.0504 12.04 
0.125 2 30.00 30.00 3.4 3.0 0.011 -0.045 695 648 9135 7935 29.3972 30.7334 12.04 
0.126 2 30.00 30.00 3.4 3.3 0.007 -0.047 700 657 9137 7937 29.3972 30.0504 12.04 
0.127 2 30.00 30.00 3.4 3.3 0.004 -0.045 700 662 9140 7939 29.3972 30.0504 12.02 
0.128 2 30.00 30.00 3.4 4.3 0.004 -0.047 701 653 9142 7941 29.3972 28.1723 12.02 
0.129 2 30.00 30.00 3.4 3.7 0.004 -0.067 703 640 9144 7944 29.3972 29.3972 12.02 
0.130 2 30.00 30.00 3.1 3.7 0.025 -0.078 708 636 9146 7946 30.0504 29.3972 12.02 
0.131 2 30.00 30.00 3.1 3.4 0.007 -0.069 699 642 9148 7948 30.0504 30.0504 12.02 
0.132 2 30.00 30.00 3.1 3.4 0.009 -0.067 696 641 9150 7950 30.0504 30.0504 12.04 
0.133 2 30.00 30.00 3.1 3.4 0.004 -0.051 693 646 9153 7952 30.0504 30.0504 12.04 
0.134 2 30.00 30.00 2.8 3.4 0.007 -0.047 693 649 9155 7954 30.7334 30.0504 12.04 
0.135 2 30.00 30.00 3.1 3.7 0.018 -0.047 681 660 9157 7957 30.0504 29.3972 12.04 
0.136 2 30.00 30.00 2.8 3.1 0.013 -0.054 682 647 9159 7959 30.7334 30.7334 12.04 
0.137 2 30.00 30.00 2.4 4.0 0.007 -0.051 692 652 9161 7961 31.4481 28.7717 12.04 
0.138 2 30.00 30.00 2.8 3.4 0.029 -0.056 672 643 9164 7963 30.7334 30.0504 12.04 
0.139 2 30.00 30.00 2.7 3.4 0.033 -0.060 673 648 9166 7965 30.7334 30.0504 12.04 
0.140 2 30.00 30.00 3.7 3.4 0.029 -0.051 676 654 9168 7967 28.7717 30.0504 12.04 
0.141 2 30.00 30.00 3.4 3.4 0.009 -0.047 696 651 9170 7970 29.3972 30.0504 12.04 
0.142 2 30.00 30.00 2.8 3.4 0.004 -0.047 699 649 9172 7972 30.7334 30.0504 12.04 
0.143 2 30.00 30.00 3.1 3.1 0.007 -0.042 692 648 9174 7974 30.0504 30.7334 12.04 
0.144 2 30.00 30.00 3.1 3.4 0.011 -0.047 691 651 9176 7976 30.0504 30.0504 12.04 
0.145 2 30.00 30.00 3.1 3.4 0.013 -0.045 697 663 9179 7978 30.0504 30.0504 12.04 
0.146 2 30.00 30.00 3.4 3.4 0.009 -0.047 688 654 9181 7981 29.3972 30.0504 12.04 
0.147 2 30.00 30.00 3.4 3.4 0.009 -0.049 691 646 9183 7983 29.3972 30.0504 12.04 
0.148 2 30.00 30.00 3.4 3.0 0.004 -0.047 702 649 9185 7985 29.3972 30.7334 12.04 
0.149 2 30.00 30.00 3.4 3.0 0.007 -0.045 702 658 9187 7987 29.3972 30.7334 12.04 
0.150 2 30.00 30.00 3.4 4.0 0.004 -0.038 702 666 9189 7989 29.3972 28.7717 12.04 
0.151 2 30.00 30.00 3.4 3.4 0.002 -0.054 701 647 9191 7991 29.3972 30.0504 12.04 
0.152 2 30.00 30.00 3.5 3.4 0.027 -0.056 709 642 9194 7994 29.3972 30.0504 12.04 
0.153 2 30.00 30.00 3.5 3.4 0.007 -0.049 704 653 9196 7996 29.3972 30.0504 12.04 
0.154 2 30.00 30.00 3.1 3.4 0.004 -0.054 703 654 9198 7998 30.0504 30.0504 12.04 
0.155 2 30.00 30.00 3.1 3.4 0.007 -0.047 699 653 9200 8000 30.0504 30.0504 12.04 
0.156 2 30.00 30.00 2.8 3.4 0.004 -0.047 695 651 9202 8002 30.7334 30.0504 12.04 
0.157 2 30.00 30.00 2.8 3.7 0.009 -0.049 687 655 9205 8005 30.7334 29.3972 12.04 
0.158 2 30.00 30.00 2.8 3.0 0.020 -0.051 680 649 9207 8007 30.7334 30.7334 12.04 
0.159 2 30.00 30.00 2.4 4.0 0.018 -0.051 682 651 9209 8009 31.4481 28.7717 12.04 
0.160 2 30.00 30.00 2.8 3.4 0.022 -0.056 677 643 9211 8011 30.7334 30.0504 12.04 
0.161 2 30.00 30.00 2.4 3.4 0.029 -0.058 671 645 9213 8013 31.4481 30.0504 12.04 
0.162 2 30.00 30.00 3.4 3.4 0.031 -0.051 669 654 9215 8015 29.3972 30.0504 12.04 
0.163 2 30.00 30.00 3.1 3.4 0.018 -0.049 690 655 9218 8018 30.0504 30.0504 12.04 
0.164 2 30.00 30.00 2.7 3.7 0.009 -0.047 690 654 9220 8020 30.7334 29.3972 12.04 
0.165 2 30.00 30.00 4.0 3.4 0.013 -0.056 686 644 9222 8022 28.1723 30.0504 12.04 
0.166 2 30.00 30.00 3.1 3.4 0.013 -0.054 698 645 9224 8024 30.0504 30.0504 12.04 
0.167 2 30.00 30.00 3.1 3.4 0.022 -0.049 701 658 9226 8026 30.0504 30.0504 12.04 
0.168 2 30.00 30.00 3.1 3.4 0.007 -0.047 691 657 9228 8028 30.0504 30.0504 12.04 
0.169 2 30.00 30.00 3.1 3.4 0.011 -0.049 690 651 9231 8031 30.0504 30.0504 12.04 
0.170 2 30.00 30.00 3.1 3.1 0.009 -0.049 687 647 9233 8033 30.0504 30.7334 12.04 
0.171 2 30.00 30.00 3.1 3.0 0.009 -0.045 692 658 9235 8035 30.0504 30.7334 12.04 
0.172 2 30.00 30.00 3.1 3.4 0.009 -0.040 690 663 9237 8037 30.0504 30.0504 12.01 
0.173 2 30.00 30.00 3.1 3.4 0.009 -0.045 686 664 9239 8039 30.0504 30.0504 12.01 
0.174 2 30.00 30.00 3.1 3.4 0.002 -0.047 696 657 9241 8041 30.0504 30.0504 12.01 
0.175 2 30.00 30.00 3.1 3.4 0.007 -0.045 694 656 9244 8044 30.0504 30.0504 12.01 
0.176 2 30.00 30.00 3.1 3.4 0.016 -0.051 687 649 9246 8046 30.0504 30.0504 12.01 
0.177 2 30.00 30.00 3.1 3.4 0.013 -0.047 693 647 9248 8048 30.0504 30.0504 12.04 
0.178 2 30.00 30.00 2.7 3.4 0.009 -0.045 696 658 9250 8050 30.7334 30.0504 12.04 
0.179 2 30.00 30.00 3.1 3.7 0.013 -0.045 685 659 9252 8052 30.0504 29.3972 12.04 
0.180 2 30.00 30.00 3.1 3.0 0.011 -0.051 681 649 9254 8055 30.0504 30.7334 12.04 
0.181 2 30.00 30.00 2.7 4.0 0.011 -0.047 689 653 9256 8057 30.7334 28.7717 12.04 
0.182 2 30.00 30.00 3.1 3.0 0.009 -0.054 669 644 9259 8059 30.0504 30.7334 12.04 
0.183 2 30.00 30.00 2.7 3.0 0.013 -0.056 685 648 9261 8061 30.7334 30.7334 12.04 
0.184 2 30.00 30.00 4.0 3.0 0.022 -0.047 682 659 9263 8063 28.1723 30.7334 12.04 
0.185 2 30.00 30.00 3.7 3.0 0.009 -0.040 701 667 9265 8066 28.7717 30.7334 12.04 
0.186 2 30.00 30.00 3.4 4.0 0.027 -0.040 709 667 9267 8068 29.3972 28.7717 12.04 
0.187 2 30.00 30.00 3.1 3.7 0.018 -0.051 710 645 9269 8070 30.0504 29.3972 12.02 
0.188 2 30.00 30.00 3.1 3.7 0.002 -0.065 701 644 9271 8072 30.0504 29.3972 12.02 
0.189 2 30.00 30.00 3.1 3.7 0.004 -0.067 705 643 9274 8074 30.0504 29.3972 12.02 
0.190 2 30.00 30.00 3.1 3.7 0.007 -0.065 693 643 9276 8076 30.0504 29.3972 12.02 
0.191 2 30.00 30.00 3.1 3.4 0.011 -0.069 689 640 9278 8078 30.0504 30.0504 12.02 
0.192 2 30.00 30.00 3.1 3.1 0.016 -0.062 690 638 9280 8081 30.0504 30.7334 12.04 
0.193 2 30.00 30.00 3.1 3.0 0.009 -0.047 690 654 9282 8083 30.0504 30.7334 12.04 
0.194 2 30.00 30.00 3.1 4.6 0.009 -0.042 690 662 9284 8085 30.0504 27.5973 12.04 
0.195 2 30.00 30.00 3.1 3.4 0.011 -0.071 689 637 9287 8087 30.0504 30.0504 12.04 
0.196 2 30.00 30.00 3.1 3.4 0.007 -0.076 690 631 9289 8089 30.0504 30.0504 12.04 
0.197 2 30.00 30.00 3.1 3.4 0.009 -0.056 693 647 9291 8092 30.0504 30.0504 12.02 
0.198 2 30.00 30.00 3.1 3.4 0.011 -0.054 689 650 9293 8094 30.0504 30.0504 12.02 
0.199 2 30.00 30.00 3.1 3.4 0.009 -0.049 686 649 9295 8096 30.0504 30.0504 12.02 
0.200 2 30.00 30.00 3.1 3.1 0.007 -0.049 696 649 9297 8098 30.0504 30.7334 12.02 
0.201 2 30.00 30.00 2.8 3.7 0.011 -0.045 689 656 9300 8100 30.7334 29.3972 12.02 
0.202 2 30.00 30.00 2.7 3.1 0.016 -0.049 681 655 9302 8102 30.7334 30.7334 12.04 
0.203 2 30.00 30.00 2.7 3.7 0.018 -0.049 681 651 9304 8105 30.7334 29.3972 12.04 
0.204 2 30.00 30.00 2.7 3.4 0.018 -0.049 683 650 9306 8107 30.7334 30.0504 12.04 
0.205 2 30.00 30.00 2.7 3.1 0.018 -0.047 672 650 9308 8109 30.7334 30.7334 12.04 
0.206 2 30.00 30.00 4.0 3.0 0.022 -0.042 670 653 9310 8111 28.1723 30.7334 12.04 
0.207 2 30.00 30.00 3.7 3.0 0.011 -0.042 698 664 9312 8113 28.7717 30.7334 12.04 
0.208 2 30.00 30.00 3.4 3.4 0.029 -0.042 708 669 9315 8116 29.3972 30.0504 12.04 
0.209 2 30.00 30.00 3.1 3.0 0.018 -0.045 708 662 9317 8118 30.0504 30.7334 12.04 
0.210 2 30.00 30.00 3.1 3.0 0.007 -0.042 705 662 9319 8120 30.0504 30.7334 12.04 
0.211 2 30.00 30.00 3.7 3.0 0.007 -0.040 702 665 9321 8122 28.7717 30.7334 12.04 
0.212 2 30.00 30.00 3.1 3.0 0.009 -0.040 706 667 9323 8124 30.0504 30.7334 12.04 
0.213 2 30.00 30.00 3.4 3.3 0.004 -0.040 700 669 9325 8127 29.3972 30.0504 12.04 
0.214 2 30.00 30.00 3.4 3.0 0.007 -0.045 696 657 9327 8129 29.3972 30.7334 12.04 
0.215 2 30.00 30.00 3.1 3.0 0.004 -0.042 703 663 9330 8131 30.0504 30.7334 12.04 
0.216 2 30.00 30.00 3.1 4.5 0.004 -0.040 697 665 9332 8133 30.0504 27.5973 12.04 
0.217 2 30.00 30.00 3.1 3.3 0.007 -0.069 694 641 9334 8135 30.0504 30.0504 12.02 
0.218 2 30.00 30.00 3.1 3.7 0.009 -0.076 694 637 9336 8137 30.0504 29.3972 12.02 
0.219 2 30.00 30.00 3.1 3.7 0.004 -0.062 695 645 9338 8139 30.0504 29.3972 12.02 
0.220 2 30.00 30.00 3.1 3.7 0.007 -0.069 696 638 9340 8141 30.0504 29.3972 12.02 
0.221 2 30.00 30.00 3.1 3.7 0.009 -0.067 687 639 9343 8144 30.0504 29.3972 12.02 
0.222 2 30.00 30.00 3.1 3.4 0.007 -0.065 693 637 9345 8146 30.0504 30.0504 12.04 
0.223 2 30.00 30.00 2.8 4.0 0.009 -0.060 694 650 9347 8148 30.7334 28.7717 12.04 
0.224 2 30.00 30.00 2.8 3.0 0.013 -0.069 682 643 9349 8150 30.7334 30.7334 12.04 
0.225 2 30.00 30.00 2.8 4.0 0.018 -0.058 678 643 9351 8152 30.7334 28.7717 12.04 
0.226 2 30.00 30.00 2.4 3.7 0.011 -0.060 684 641 9354 8155 31.4481 29.3972 12.04 
0.227 2 30.00 30.00 2.7 3.4 0.025 -0.069 680 638 9356 8157 30.7334 30.0504 12.04 
0.228 2 30.00 30.00 2.7 3.4 0.027 -0.060 675 649 9358 8159 30.7334 30.0504 12.04 
0.229 2 30.00 30.00 3.7 3.4 0.027 -0.051 672 653 9360 8161 28.7717 30.0504 12.04 
0.230 2 30.00 30.00 3.1 3.4 0.009 -0.045 695 653 9362 8163 30.0504 30.0504 12.04 
0.231 2 30.00 30.00 2.7 3.1 0.007 -0.047 693 647 9364 8166 30.7334 30.7334 12.04 
0.232 2 30.00 30.00 3.1 3.1 0.011 -0.045 688 654 9366 8168 30.0504 30.7334 12.04 
0.233 2 30.00 30.00 3.1 3.0 0.011 -0.045 689 664 9368 8170 30.0504 30.7334 12.04 
0.234 2 30.00 30.00 3.1 3.0 0.009 -0.042 693 671 9371 8172 30.0504 30.7334 12.04 
0.235 2 30.00 30.00 3.4 3.4 0.007 -0.045 689 665 9373 8174 29.3972 30.0504 12.04 
0.236 2 30.00 30.00 3.4 3.0 0.009 -0.045 691 654 9375 8176 29.3972 30.7334 12.04 
0.237 2 30.00 30.00 3.4 3.0 0.007 -0.042 700 661 9377 8179 29.3972 30.7334 12.04 
0.238 2 30.00 30.00 3.4 3.0 0.004 -0.040 700 666 9379 8181 29.3972 30.7334 12.04 
0.239 2 30.00 30.00 3.4 3.7 0.004 -0.042 696 663 9381 8183 29.3972 29.3972 12.04 
0.240 2 30.00 30.00 3.4 3.3 0.004 -0.047 701 654 9383 8185 29.3972 30.0504 12.04 
0.241 2 30.00 30.00 3.4 3.3 0.027 -0.045 711 658 9386 8187 29.3972 30.0504 12.04 
0.242 2 30.00 30.00 3.4 3.3 0.007 -0.049 709 657 9388 8189 29.3972 30.0504 12.04 
0.243 2 30.00 30.00 3.4 3.3 0.002 -0.049 707 648 9390 8191 29.3972 30.0504 12.04 
0.244 2 30.00 30.00 3.4 3.3 0.004 -0.045 705 647 9392 8194 29.3972 30.0504 12.04 
0.245 2 30.00 30.00 3.1 4.3 0.016 -0.045 704 654 9394 8196 30.0504 28.1723 12.04 
0.246 2 30.00 30.00 3.1 3.4 0.004 -0.076 694 639 9397 8198 30.0504 30.0504 12.04 
0.247 2 30.00 30.00 3.1 4.0 0.007 -0.071 687 639 9399 8200 30.0504 28.7717 12.02 
0.248 2 30.00 30.00 3.1 3.7 0.009 -0.074 700 637 9401 8202 30.0504 29.3972 12.02 
0.249 2 30.00 30.00 3.1 3.4 0.007 -0.074 693 632 9403 8204 30.0504 30.0504 12.02 
0.250 2 30.00 30.00 2.8 3.4 0.009 -0.062 689 645 9405 8207 30.7334 30.0504 12.02 
0.253 2 30.00 30.00 3.4 3.4 0.016 -0.054 685 650 9412 8213 29.3972 30.0504 12.02 
0.254 2 30.00 30.00 2.4 3.4 0.004 -0.045 698 649 9414 8215 31.4481 30.0504 12.01 
0.255 2 30.00 30.00 2.8 3.4 0.007 -0.045 697 657 9415 8217 30.7334 30.0504 12.01 
0.256 2 30.00 30.00 2.8 3.4 0.011 -0.047 684 649 9417 8218 30.7334 30.0504 12.01 
0.257 2 30.00 30.00 2.8 3.4 0.013 -0.047 685 655 9419 8220 30.7334 30.0504 12.01 
0.257 2 30.00 30.00 3.1 3.4 0.016 -0.047 683 652 9421 8222 30.0504 30.0504 12.01 
0.258 2 30.00 30.00 3.1 3.0 0.016 -0.049 677 650 9423 8224 30.0504 30.7334 12.06 
0.259 2 30.00 30.00 3.1 3.0 0.018 -0.047 688 657 9425 8226 30.0504 30.7334 12.06 
0.260 2 30.00 30.00 3.1 3.0 0.013 -0.042 689 666 9427 8228 30.0504 30.7334 12.06 
0.261 2 30.00 30.00 3.1 3.7 0.009 -0.042 690 665 9429 8231 30.0504 29.3972 12.06 
0.262 2 30.00 30.00 3.1 3.4 0.011 -0.047 689 656 9431 8233 30.0504 30.0504 12.06 
0.263 2 30.00 30.00 3.1 3.4 0.004 -0.047 699 652 9434 8235 30.0504 30.0504 12.04 
0.264 2 30.00 30.00 3.1 3.4 0.011 -0.047 695 650 9436 8237 30.0504 30.0504 12.04 
0.265 2 30.00 30.00 3.1 3.4 0.009 -0.047 689 653 9438 8239 30.0504 30.0504 12.04 
0.266 2 30.00 30.00 3.1 3.4 0.009 -0.047 690 661 9440 8241 30.0504 30.0504 12.04 
0.267 2 30.00 30.00 2.7 3.7 0.013 -0.047 688 656 9442 8243 30.7334 29.3972 12.04 
0.268 2 30.00 30.00 2.7 3.0 0.013 -0.054 680 644 9444 8246 30.7334 30.7334 12.04 
0.269 2 30.00 30.00 2.7 4.0 0.022 -0.049 677 650 9447 8248 30.7334 28.7717 12.04 
0.270 2 30.00 30.00 2.4 3.4 0.018 -0.056 677 649 9449 8250 31.4481 30.0504 12.04 
0.271 2 30.00 30.00 2.7 3.0 0.020 -0.054 679 648 9451 8252 30.7334 30.7334 12.04 
0.272 2 30.00 30.00 2.7 3.0 0.033 -0.047 673 651 9453 8254 30.7334 30.7334 12.04 
0.273 2 30.00 30.00 3.6 3.0 0.031 -0.042 677 664 9455 8257 28.7717 30.7334 12.04 
0.274 2 30.00 30.00 3.3 3.0 0.011 -0.042 695 666 9457 8259 29.3972 30.7334 12.04 
0.275 2 30.00 30.00 3.0 3.0 0.002 -0.042 699 669 9460 8261 30.0504 30.7334 12.04 
0.276 2 30.00 30.00 2.7 3.3 0.007 -0.042 699 661 9462 8263 30.7334 30.0504 12.04 
0.277 2 30.00 30.00 3.0 3.3 0.009 -0.045 685 651 9464 8265 30.0504 30.0504 12.04 
0.278 2 30.00 30.00 3.0 3.3 0.011 -0.045 689 653 9466 8267 30.0504 30.0504 12.04 
0.279 2 30.00 30.00 3.3 3.6 0.011 -0.047 690 655 9468 8269 29.3972 29.3972 12.04 
0.280 2 30.00 30.00 3.3 3.3 0.009 -0.056 690 646 9470 8272 29.3972 30.0504 12.04 
0.281 2 30.00 30.00 3.4 3.3 0.004 -0.058 693 643 9472 8274 29.3972 30.0504 12.04 
0.282 2 30.00 30.00 3.4 3.3 0.007 -0.047 697 647 9474 8276 29.3972 30.0504 12.04 
0.283 2 30.00 30.00 3.4 4.0 0.009 -0.049 701 650 9477 8278 29.3972 28.7717 12.04 
0.284 2 30.00 30.00 3.4 3.7 0.004 -0.062 701 647 9479 8280 29.3972 29.3972 12.04 
0.285 2 30.00 30.00 3.4 3.7 0.007 -0.067 705 637 9481 8282 29.3972 29.3972 12.04 
0.286 2 30.00 30.00 3.4 3.7 0.007 -0.065 701 638 9483 8284 29.3972 29.3972 12.04 
0.287 2 30.00 30.00 3.1 3.7 0.004 -0.067 700 642 9485 8287 30.0504 29.3972 12.04 
0.288 2 30.00 30.00 3.1 3.7 0.009 -0.065 697 643 9487 8289 30.0504 29.3972 12.02 
0.289 2 30.00 30.00 3.1 3.4 0.002 -0.062 699 641 9490 8291 30.0504 30.0504 12.02 
0.290 2 30.00 30.00 2.7 3.0 0.007 -0.060 692 641 9492 8293 30.7334 30.7334 12.02 
0.291 2 30.00 30.00 2.7 4.0 0.013 -0.049 680 654 9494 8295 30.7334 28.7717 12.02 
0.292 2 30.00 30.00 2.4 3.7 0.018 -0.056 678 649 9496 8297 31.4481 29.3972 12.02 
0.293 2 30.00 30.00 2.7 3.1 0.025 -0.062 675 641 9498 8300 30.7334 30.7334 12.04 
0.294 2 30.00 30.00 2.3 3.0 0.029 -0.054 671 643 9500 8302 31.4481 30.7334 12.04 
0.295 2 30.00 30.00 3.6 3.0 0.029 -0.042 668 660 9503 8304 28.7717 30.7334 12.04 
0.296 2 30.00 30.00 3.4 3.0 0.016 -0.042 690 667 9505 8306 29.3972 30.7334 12.04 
0.297 2 30.00 30.00 3.0 3.4 0.007 -0.042 698 666 9507 8308 30.0504 30.0504 12.04 
0.298 2 30.00 30.00 2.7 3.0 0.007 -0.045 697 657 9509 8311 30.7334 30.7334 12.04 
0.299 2 30.00 30.00 3.0 3.0 0.011 -0.042 687 659 9511 8313 30.0504 30.7334 12.04 
0.300 2 30.00 30.00 3.0 3.3 0.007 -0.042 688 663 9513 8315 30.0504 30.0504 12.04 
0.301 2 30.00 30.00 3.0 3.3 0.013 -0.042 688 658 9515 8317 30.0504 30.0504 12.04 
0.302 2 30.00 30.00 3.3 3.0 0.011 -0.045 684 648 9518 8319 29.3972 30.7334 12.04 
0.303 2 30.00 30.00 3.4 3.3 0.007 -0.047 689 660 9520 8321 29.3972 30.0504 12.04 
0.304 2 30.00 30.00 3.4 3.3 0.009 -0.045 699 664 9522 8324 29.3972 30.0504 12.04 
0.305 2 30.00 30.00 3.4 4.0 0.009 -0.047 699 652 9524 8326 29.3972 28.7717 12.04 
0.306 2 30.00 30.00 3.4 3.7 0.004 -0.060 701 640 9526 8328 29.3972 29.3972 12.04 
0.307 2 30.00 30.00 3.4 3.7 0.004 -0.067 707 640 9528 8330 29.3972 29.3972 12.04 
0.308 2 30.00 30.00 3.4 3.7 0.013 -0.067 704 643 9530 8332 29.3972 29.3972 12.02 
0.309 2 30.00 30.00 3.4 3.4 0.004 -0.071 700 643 9533 8334 29.3972 30.0504 12.02 
0.310 2 30.00 30.00 3.4 3.4 0.004 -0.058 701 644 9535 8336 29.3972 30.0504 12.02 
0.311 2 30.00 30.00 3.4 3.4 0.007 -0.049 706 650 9537 8339 29.3972 30.0504 12.02 
0.312 2 30.00 30.00 2.8 3.7 0.007 -0.047 706 657 9539 8341 30.7334 29.3972 12.02 
0.313 2 30.00 30.00 2.8 4.6 0.007 -0.056 689 647 9541 8343 30.7334 27.5973 12.04 
0.314 2 30.00 30.00 2.7 3.7 0.016 -0.092 680 630 9544 8345 30.7334 29.3972 12.04 
0.315 2 30.00 30.00 2.4 3.1 0.011 -0.094 681 626 9546 8347 31.4481 30.7334 12.04 
0.316 2 30.00 30.00 2.7 3.1 0.025 -0.062 681 640 9548 8349 30.7334 30.7334 12.04 
0.317 2 30.00 30.00 3.7 3.0 0.031 -0.047 674 655 9550 8352 28.7717 30.7334 12.04 
0.318 2 30.00 30.00 3.4 3.0 0.013 -0.042 687 666 9552 8354 29.3972 30.7334 12.02 
0.319 2 30.00 30.00 3.1 3.4 0.007 -0.040 705 668 9554 8356 30.0504 30.0504 12.02 
0.320 2 30.00 30.00 2.7 3.0 0.007 -0.042 696 653 9557 8358 30.7334 30.7334 12.02 
0.321 2 30.00 30.00 3.1 3.0 0.013 -0.042 687 658 9559 8360 30.0504 30.7334 12.02 
0.322 2 30.00 30.00 3.1 3.0 0.011 -0.042 687 668 9561 8363 30.0504 30.7334 12.02 
0.323 2 30.00 30.00 3.1 3.0 0.009 -0.040 690 669 9563 8365 30.0504 30.7334 12.04 
0.324 2 30.00 30.00 3.4 3.0 0.011 -0.040 687 663 9565 8367 29.3972 30.7334 12.04 
0.325 2 30.00 30.00 3.4 3.0 0.011 -0.042 688 667 9567 8369 29.3972 30.7334 12.04 
0.326 2 30.00 30.00 3.4 3.0 0.007 -0.042 702 669 9569 8371 29.3972 30.7334 12.04 
0.327 2 30.00 30.00 3.4 3.9 0.004 -0.040 700 667 9572 8373 29.3972 28.7717 12.04 
0.328 2 30.00 30.00 3.1 3.3 0.002 -0.051 703 644 9574 8376 30.0504 30.0504 12.01 
0.329 2 30.00 30.00 3.7 3.6 0.004 -0.056 697 647 9576 8378 28.7717 29.3972 12.01 
0.330 2 30.00 30.00 3.1 3.3 0.018 -0.054 705 647 9578 8380 30.0504 30.0504 12.01 
0.331 2 30.00 30.00 3.1 3.3 0.007 -0.056 705 645 9580 8382 30.0504 30.0504 12.01 
0.332 2 30.00 30.00 3.1 3.3 0.011 -0.047 693 644 9583 8384 30.0504 30.0504 12.01 
0.333 2 30.00 30.00 3.1 3.3 0.013 -0.045 691 658 9585 8386 30.0504 30.0504 12.02 
0.334 2 30.00 30.00 2.8 3.6 0.007 -0.042 688 659 9587 8389 30.7334 29.3972 12.02 
0.335 2 30.00 30.00 2.8 3.3 0.016 -0.051 680 647 9589 8391 30.7334 30.0504 12.02 
0.336 2 30.00 30.00 2.7 4.0 0.020 -0.054 677 641 9591 8393 30.7334 28.7717 12.02 
0.337 2 30.00 30.00 2.4 3.3 0.018 -0.060 681 644 9594 8395 31.4481 30.0504 12.02 
0.338 2 30.00 30.00 2.7 3.3 0.025 -0.060 675 644 9596 8397 30.7334 30.0504 12.04 
0.339 2 30.00 30.00 2.7 3.3 0.027 -0.051 673 653 9598 8399 30.7334 30.0504 12.04 
0.340 2 30.00 30.00 3.4 3.3 0.027 -0.047 673 650 9600 8402 29.3972 30.0504 12.04 
0.341 2 30.00 30.00 2.7 3.7 0.013 -0.045 690 648 9602 8404 30.7334 29.3972 12.04 
0.342 2 30.00 30.00 2.7 3.3 0.013 -0.051 687 645 9604 8406 30.7334 30.0504 12.04 
0.343 2 30.00 30.00 2.7 3.3 0.020 -0.049 681 651 9607 8408 30.7334 30.0504 11.99 
0.344 2 30.00 30.00 3.0 3.3 0.018 -0.049 679 655 9609 8410 30.0504 30.0504 11.99 
0.345 2 30.00 30.00 3.0 3.3 0.011 -0.047 685 649 9611 8412 30.0504 30.0504 11.99 
0.346 2 30.00 30.00 3.3 3.3 0.016 -0.049 688 645 9613 8415 29.3972 30.0504 11.99 
0.347 2 30.00 30.00 3.3 3.0 0.007 -0.049 688 654 9615 8417 29.3972 30.7334 11.99 
0.348 2 30.00 30.00 3.4 3.0 0.004 -0.047 697 662 9617 8419 29.3972 30.7334 12.04 
0.349 2 30.00 30.00 3.4 3.3 0.004 -0.042 699 663 9619 8421 29.3972 30.0504 12.04 
0.350 2 30.00 30.00 3.4 3.3 0.004 -0.042 700 656 9622 8423 29.3972 30.0504 12.04 
0.351 2 30.00 30.00 3.4 3.6 0.004 -0.047 703 657 9624 8425 29.3972 29.3972 12.04 
0.352 2 30.00 30.00 3.4 3.3 0.016 -0.047 710 651 9626 8428 29.3972 30.0504 12.04 
0.353 2 30.00 30.00 3.4 3.3 0.004 -0.054 702 652 9628 8430 29.3972 30.0504 12.04 
0.354 2 30.00 30.00 3.4 3.3 0.004 -0.049 697 647 9630 8432 29.3972 30.0504 12.04 
0.355 2 30.00 30.00 3.4 3.3 0.002 -0.045 700 651 9632 8434 29.3972 30.0504 12.04 
0.356 2 30.00 30.00 2.8 3.7 0.013 -0.045 700 658 9635 8436 30.7334 29.3972 12.04 
0.357 2 30.00 30.00 2.7 3.0 0.013 -0.054 689 649 9637 8438 30.7334 30.7334 12.04 
0.358 2 30.00 30.00 2.7 4.0 0.018 -0.049 681 652 9639 8441 30.7334 28.7717 12.04 
0.359 2 30.00 30.00 2.7 3.7 0.016 -0.051 684 642 9641 8443 30.7334 29.3972 12.04 
0.360 2 30.00 30.00 3.1 3.4 0.016 -0.062 678 643 9643 8445 30.0504 30.0504 12.04 
0.361 2 30.00 30.00 2.7 3.4 0.016 -0.056 682 647 9645 8447 30.7334 30.0504 12.04 
0.362 2 30.00 30.00 3.7 3.4 0.016 -0.049 686 649 9647 8449 28.7717 30.0504 12.04 
0.363 2 30.00 30.00 3.4 3.4 0.007 -0.045 700 646 9650 8452 29.3972 30.0504 12.04 
0.364 2 30.00 30.00 3.1 3.0 0.002 -0.049 702 653 9652 8454 30.0504 30.7334 12.04 
0.365 2 30.00 30.00 4.0 3.3 0.004 -0.045 692 656 9654 8456 28.1723 30.0504 12.04 
0.366 2 30.00 30.00 3.1 3.3 0.022 -0.042 710 660 9656 8458 30.0504 30.0504 12.04 
0.367 2 30.00 30.00 3.1 3.3 0.036 -0.045 707 654 9658 8460 30.0504 30.0504 12.04 
0.368 2 30.00 30.00 3.1 3.7 0.009 -0.047 697 652 9660 8462 30.0504 29.3972 12.04 
0.369 2 30.00 30.00 3.1 3.3 0.013 -0.056 690 645 9663 8464 30.0504 30.0504 12.04 
0.370 2 30.00 30.00 3.1 3.3 0.011 -0.054 689 646 9665 8467 30.0504 30.0504 12.04 
0.371 2 30.00 30.00 3.4 3.3 0.007 -0.049 689 645 9667 8469 29.3972 30.0504 12.04 
0.372 2 30.00 30.00 3.1 3.7 0.011 -0.049 694 649 9669 8471 30.0504 29.3972 12.04 
0.373 2 30.00 30.00 3.1 3.4 0.009 -0.054 694 644 9671 8473 30.0504 30.0504 11.99 
0.374 2 30.00 30.00 3.1 3.4 0.004 -0.049 697 653 9673 8475 30.0504 30.0504 11.99 
0.375 2 30.00 30.00 3.1 3.4 0.007 -0.049 691 644 9676 8477 30.0504 30.0504 11.99 
0.376 2 30.00 30.00 3.1 3.4 0.013 -0.051 690 646 9678 8480 30.0504 30.0504 11.99 
0.377 2 30.00 30.00 3.1 3.4 0.009 -0.047 689 656 9680 8482 30.0504 30.0504 11.99 
0.378 2 30.00 30.00 2.8 4.0 0.009 -0.045 689 658 9682 8484 30.7334 28.7717 12.07 
0.379 2 30.00 30.00 2.7 3.0 0.018 -0.060 682 640 9684 8486 30.7334 30.7334 12.07 
0.380 2 30.00 30.00 2.7 3.7 0.020 -0.054 676 647 9687 8488 30.7334 29.3972 12.07 
0.381 2 30.00 30.00 2.4 3.4 0.022 -0.049 679 648 9689 8491 31.4481 30.0504 12.07 
0.382 2 30.00 30.00 2.7 3.0 0.025 -0.049 676 653 9691 8493 30.7334 30.7334 12.07 
0.383 2 30.00 30.00 2.3 3.4 0.027 -0.045 675 658 9693 8495 31.4481 30.0504 12.04 
0.384 2 30.00 30.00 3.3 3.0 0.031 -0.047 670 655 9695 8497 29.3972 30.7334 12.04 
0.385 2 30.00 30.00 3.3 3.3 0.013 -0.042 687 664 9698 8499 29.3972 30.0504 12.04 
0.386 2 30.00 30.00 3.0 3.0 0.011 -0.045 694 665 9700 8501 30.0504 30.7334 12.04 
0.387 2 30.00 30.00 2.7 3.3 0.009 -0.045 697 659 9702 8504 30.7334 30.0504 12.04 
0.388 2 30.00 30.00 3.0 3.3 0.016 -0.045 687 650 9704 8506 30.0504 30.0504 12.04 
0.389 2 30.00 30.00 3.0 3.3 0.009 -0.045 693 664 9706 8508 30.0504 30.0504 12.04 
0.390 2 30.00 30.00 3.3 3.3 0.009 -0.047 691 657 9708 8510 29.3972 30.0504 12.04 
0.391 2 30.00 30.00 3.3 3.0 0.011 -0.047 690 649 9710 8512 29.3972 30.7334 12.04 
0.392 2 30.00 30.00 3.4 3.0 0.007 -0.047 694 655 9712 8514 29.3972 30.7334 12.04 
0.393 2 30.00 30.00 3.4 3.0 0.007 -0.045 698 668 9715 8516 29.3972 30.7334 12.02 
0.394 2 30.00 30.00 3.4 3.6 0.004 -0.045 698 666 9717 8519 29.3972 29.3972 12.02 
0.395 2 30.00 30.00 3.4 3.6 0.009 -0.047 702 652 9719 8521 29.3972 29.3972 12.02 
0.396 2 30.00 30.00 3.4 3.6 0.011 -0.056 713 650 9721 8523 29.3972 29.3972 12.02 
0.397 2 30.00 30.00 3.4 3.6 0.007 -0.060 708 640 9723 8525 29.3972 29.3972 12.02 
0.398 2 30.00 30.00 3.1 3.3 0.004 -0.065 698 646 9725 8527 30.0504 30.0504 12.04 
0.399 2 30.00 30.00 3.1 3.3 0.002 -0.054 693 647 9727 8529 30.0504 30.0504 12.04 
0.400 2 30.00 30.00 3.1 4.0 0.007 -0.047 699 651 9730 8531 30.0504 28.7717 12.04 
0.401 4 60.00 60.00 12.0 12.0 0.013 -0.065 691 637 9732 8534 30.7334 30.0504 12.04 
0.402 4 60.00 60.00 12.0 12.0 0.679 -0.806 826 532 9734 8536 30.7334 28.1723 12.04 
0.403 4 60.00 60.00 10.9 10.9 1.998 -1.844 1023 388 9737 8538 31.4481 30.0504 10.87 
0.404 4 60.00 60.00 10.9 10.9 2.283 -2.283 1023 273 9739 8541 31.4481 32.1969 10.87 
0.405 4 60.00 60.00 10.9 10.9 2.087 -2.283 1009 330 9741 8543 33.8067 34.6736 10.87 
0.406 4 60.00 60.00 10.9 10.9 2.283 -2.145 1023 369 9744 8546 34.6736 36.5478 10.87 
0.407 4 60.00 60.00 10.9 10.9 2.283 -2.283 1023 311 9747 8549 37.5630 38.6363 10.87 
0.408 4 60.00 60.00 10.3 10.3 1.897 -2.042 978 391 9750 8552 40.9779 40.9779 10.28 
0.409 4 60.00 60.00 10.3 10.3 2.283 -2.016 1023 387 9753 8555 40.9779 42.2584 10.28 
0.410 4 60.00 60.00 10.3 10.3 1.884 -2.283 960 300 9756 8558 42.2584 42.2584 10.28 
0.411 4 60.00 60.00 10.3 10.3 1.917 -1.871 993 408 9759 8561 45.0756 45.0756 10.28 
0.412 4 60.00 60.00 10.3 10.3 2.283 -2.112 1023 363 9763 8565 46.6300 48.2953 10.28 
0.413 4 60.00 60.00 10.7 9.8 1.748 -1.862 960 412 9767 8569 48.2953 50.0841 10.76 
0.414 4 60.00 60.00 9.8 8.9 2.283 -1.857 1023 413 9770 8572 50.0841 52.0104 10.76 
0.415 4 60.00 60.00 8.9 8.9 1.681 -1.471 950 437 9774 8576 52.0104 52.0104 10.76 
0.416 4 60.00 60.00 8.9 8.9 1.926 -1.174 1007 474 9778 8580 52.0104 52.0104 10.76 
0.417 4 60.00 60.00 7.9 7.9 1.366 -1.138 897 474 9782 8584 54.0908 54.0908 10.76 
0.418 4 60.00 60.00 6.8 5.6 1.350 -0.920 921 490 9786 8588 56.3446 58.7943 11.68 
0.419 4 60.00 60.00 6.8 5.6 0.826 -0.484 815 562 9790 8592 56.3446 58.7943 11.68 
0.420 4 60.00 60.00 6.8 5.6 0.585 -0.201 795 623 9794 8596 56.3446 58.7943 11.68 
0.421 4 60.00 60.00 5.6 5.6 0.348 -0.098 754 642 9798 8600 58.7943 58.7943 11.68 
0.422 4 60.00 60.00 5.6 5.6 0.252 -0.060 743 646 9802 8605 58.7943 58.7943 11.68 
0.423 4 60.00 60.00 5.6 4.3 0.049 -0.054 705 647 9807 8609 58.7943 61.4668 12.02 
0.424 4 60.00 60.00 5.6 4.3 0.013 -0.040 698 670 9811 8613 58.7943 61.4668 12.02 
0.425 4 60.00 60.00 5.6 5.6 0.009 -0.033 688 684 9815 8617 58.7943 58.7943 12.02 
0.426 4 60.00 60.00 5.6 5.6 0.009 -0.036 692 679 9819 8621 58.7943 58.7943 12.02 
0.427 4 60.00 60.00 5.6 5.6 0.011 -0.045 689 656 9823 8625 58.7943 58.7943 12.02 
0.428 4 60.00 60.00 5.6 5.6 0.009 -0.045 694 665 9827 8629 58.7943 58.7943 12.01 
0.429 4 60.00 60.00 5.6 5.6 0.013 -0.047 691 658 9832 8633 58.7943 58.7943 12.01 
0.430 4 60.00 60.00 4.3 7.9 0.011 -0.047 696 658 9836 8637 61.4668 54.0908 12.01 
0.431 4 60.00 60.00 5.6 4.3 0.025 -0.152 671 619 9840 8641 58.7943 61.4668 12.01 
0.432 4 60.00 60.00 5.6 5.6 0.018 -0.092 681 638 9844 8645 58.7943 58.7943 12.01 
0.433 4 60.00 60.00 5.6 5.6 0.011 -0.049 687 659 9848 8650 58.7943 58.7943 12.01 
0.434 4 60.00 60.00 5.6 5.6 0.007 -0.045 693 659 9852 8653 58.7943 58.7943 12.01 
0.435 4 60.00 60.00 5.6 5.6 0.011 -0.047 691 653 9857 8658 58.7943 58.7943 12.01 
0.436 4 60.00 60.00 5.6 6.8 0.016 -0.045 689 649 9861 8662 58.7943 56.3446 12.01 
0.437 4 60.00 60.00 5.6 6.8 0.013 -0.094 693 637 9865 8666 58.7943 56.3446 12.01 
0.438 4 60.00 60.00 5.6 6.8 0.009 -0.152 702 618 9869 8670 58.7943 56.3446 11.98 
0.439 4 60.00 60.00 5.6 6.8 0.009 -0.165 696 621 9873 8674 58.7943 56.3446 11.98 
0.440 4 60.00 60.00 5.6 5.6 0.007 -0.188 694 613 9877 8678 58.7943 58.7943 11.98 
0.441 4 60.00 60.00 5.6 6.8 0.011 -0.121 692 626 9881 8682 58.7943 56.3446 11.98 
0.442 4 60.00 60.00 5.6 5.6 0.009 -0.129 696 634 9885 8686 58.7943 58.7943 11.98 
0.443 4 60.00 60.00 5.6 5.6 0.011 -0.094 696 640 9890 8690 58.7943 58.7943 12.01 
0.444 4 60.00 60.00 5.6 5.6 0.007 -0.056 694 652 9894 8694 58.7943 58.7943 12.01 
0.445 4 60.00 60.00 5.6 5.6 0.007 -0.047 699 646 9898 8698 58.7943 58.7943 12.01 
0.446 4 60.00 60.00 5.6 5.6 0.011 -0.047 699 653 9902 8702 58.7943 58.7943 12.01 
0.447 4 60.00 60.00 5.6 5.6 0.007 -0.045 695 657 9906 8706 58.7943 58.7943 12.01 
0.448 4 60.00 60.00 5.6 6.8 0.007 -0.045 692 658 9910 8710 58.7943 56.3446 12.01 
0.449 4 60.00 60.00 5.6 6.8 0.013 -0.089 701 635 9914 8714 58.7943 56.3446 12.01 
0.450 4 60.00 60.00 5.6 6.8 0.007 -0.161 695 620 9918 8718 58.7943 56.3446 12.01 
0.452 4 60.00 60.00 5.6 6.8 0.007 -0.165 695 620 9923 8723 58.7943 56.3446 12.01 
0.452 4 60.00 60.00 5.6 5.6 0.013 -0.201 690 612 9927 8726 58.7943 58.7943 12.01 
0.453 4 60.00 60.00 5.6 6.8 0.011 -0.132 699 626 9931 8730 58.7943 56.3446 12.01 
0.454 4 60.00 60.00 6.8 5.6 0.013 -0.132 692 633 9935 8734 56.3446 58.7943 12.01 
0.455 4 60.00 60.00 5.6 5.6 0.056 -0.092 715 641 9939 8738 58.7943 58.7943 12.01 
0.456 4 60.00 60.00 5.6 5.6 0.029 -0.058 704 651 9943 8742 58.7943 58.7943 12.01 
0.457 4 60.00 60.00 5.6 5.6 0.020 -0.047 706 648 9947 8746 58.7943 58.7943 12.01 
0.458 4 60.00 60.00 5.6 5.6 0.009 -0.049 692 652 9951 8751 58.7943 58.7943 12.01 
0.459 4 60.00 60.00 5.6 5.6 0.007 -0.047 694 656 9955 8755 58.7943 58.7943 12.01 
0.460 4 60.00 60.00 5.6 6.8 0.007 -0.045 692 654 9959 8759 58.7943 56.3446 12.01 
0.461 4 60.00 60.00 5.6 6.8 0.007 -0.087 698 637 9963 8763 58.7943 56.3446 12.01 
0.462 4 60.00 60.00 5.6 6.8 0.009 -0.158 695 613 9967 8766 58.7943 56.3446 12.01 
0.463 4 60.00 60.00 5.6 6.8 0.007 -0.163 697 620 9971 8771 58.7943 56.3446 12.01 
0.464 4 60.00 60.00 5.6 5.6 0.011 -0.185 692 616 9975 8774 58.7943 58.7943 12.01 
0.465 4 60.00 60.00 5.6 6.8 0.011 -0.112 698 631 9979 8779 58.7943 56.3446 12.01 
0.466 4 60.00 60.00 6.8 5.6 0.009 -0.121 693 630 9983 8783 56.3446 58.7943 12.01 
0.467 4 60.00 60.00 5.6 5.6 0.049 -0.085 714 639 9988 8787 58.7943 58.7943 12.01 
0.468 4 60.00 60.00 5.6 5.6 0.040 -0.051 711 645 9992 8791 58.7943 58.7943 11.99 
0.469 4 60.00 60.00 5.6 5.6 0.018 -0.047 705 657 9996 8795 58.7943 58.7943 11.99 
0.470 4 60.00 60.00 5.6 4.3 0.004 -0.047 697 652 10000 8799 58.7943 61.4668 11.99 
0.471 4 60.00 60.00 5.6 4.3 0.009 -0.038 695 671 10004 8803 58.7943 61.4668 11.99 
0.472 4 60.00 60.00 5.6 5.6 0.004 -0.031 683 682 10008 8807 58.7943 58.7943 11.99 
0.473 4 60.00 60.00 5.6 6.8 0.004 -0.036 703 674 10012 8812 58.7943 56.3446 12.01 
0.474 4 60.00 60.00 5.6 6.8 0.007 -0.071 700 643 10016 8815 58.7943 56.3446 12.01 
0.475 4 60.00 60.00 5.6 6.8 0.009 -0.138 699 627 10020 8819 58.7943 56.3446 12.01 
0.476 4 60.00 60.00 5.6 6.8 0.009 -0.170 690 622 10024 8823 58.7943 56.3446 12.01 
0.477 4 60.00 60.00 5.6 5.6 0.007 -0.188 694 612 10028 8827 58.7943 58.7943 12.01 
0.478 4 60.00 60.00 5.6 5.6 0.007 -0.116 695 627 10032 8831 58.7943 58.7943 12.06 
0.479 4 60.00 60.00 5.6 5.6 0.007 -0.058 697 647 10036 8835 58.7943 58.7943 12.06 
0.480 4 60.00 60.00 5.6 5.6 0.004 -0.047 698 655 10040 8839 58.7943 58.7943 12.06 
0.481 4 60.00 60.00 5.6 5.6 0.007 -0.045 702 658 10044 8843 58.7943 58.7943 12.06 
0.482 4 60.00 60.00 5.6 4.3 0.004 -0.049 692 649 10049 8848 58.7943 61.4668 12.06 
0.483 4 60.00 60.00 5.6 5.6 0.004 -0.038 696 672 10053 8852 58.7943 58.7943 11.99 
0.484 4 60.00 60.00 5.6 6.8 0.007 -0.040 698 667 10057 8856 58.7943 56.3446 11.99 
0.485 4 60.00 60.00 5.6 6.8 0.004 -0.080 699 644 10061 8860 58.7943 56.3446 11.99 
0.486 4 60.00 60.00 5.6 6.8 0.007 -0.143 694 627 10065 8864 58.7943 56.3446 11.99 
0.487 4 60.00 60.00 5.6 6.8 0.007 -0.170 695 618 10069 8868 58.7943 56.3446 11.99 
0.488 4 60.00 60.00 5.6 6.8 0.007 -0.181 694 618 10073 8872 58.7943 56.3446 11.98 
0.489 4 60.00 60.00 5.6 5.6 0.007 -0.188 696 615 10077 8876 58.7943 58.7943 11.98 
0.490 4 60.00 60.00 6.8 5.6 0.004 -0.121 698 625 10081 8880 56.3446 58.7943 11.98 
0.491 4 60.00 60.00 5.6 5.6 0.049 -0.060 713 645 10085 8884 58.7943 58.7943 11.98 
0.492 4 60.00 60.00 5.6 5.6 0.078 -0.047 722 654 10089 8888 58.7943 58.7943 11.98 
0.493 4 60.00 60.00 5.6 6.8 0.018 -0.049 704 657 10094 8892 58.7943 56.3446 12.01 
0.494 4 60.00 60.00 5.6 5.6 0.004 -0.092 699 636 10098 8896 58.7943 58.7943 12.01 
0.495 4 60.00 60.00 5.6 6.8 0.009 -0.089 697 628 10102 8900 58.7943 56.3446 12.01 
0.496 4 60.00 60.00 5.6 6.8 0.007 -0.109 699 634 10105 8904 58.7943 56.3446 12.01 
0.497 4 60.00 60.00 5.6 6.8 0.007 -0.158 695 623 10110 8908 58.7943 56.3446 12.01 
0.498 4 60.00 60.00 5.6 6.8 0.007 -0.172 700 620 10114 8912 58.7943 56.3446 11.98 
0.499 4 60.00 60.00 5.6 6.8 0.007 -0.176 689 615 10118 8916 58.7943 56.3446 11.98 
0.500 4 60.00 60.00 5.6 6.8 0.009 -0.179 701 615 10122 8920 58.7943 56.3446 11.98 
0.501 4 60.00 60.00 5.6 5.6 0.009 -0.190 699 615 10126 8924 58.7943 58.7943 11.98 
0.502 4 60.00 60.00 6.8 5.6 0.013 -0.109 700 637 10130 8928 56.3446 58.7943 11.98 
0.503 4 60.00 60.00 5.6 5.6 0.058 -0.056 715 653 10134 8933 58.7943 58.7943 11.98 
0.504 4 60.00 60.00 5.6 5.6 0.112 -0.049 724 651 10138 8937 58.7943 58.7943 11.98 
0.505 4 60.00 60.00 5.6 5.6 0.018 -0.045 702 653 10142 8941 58.7943 58.7943 11.98 
0.506 4 60.00 60.00 5.6 4.3 0.007 -0.045 700 650 10146 8945 58.7943 61.4668 11.98 
0.507 4 60.00 60.00 5.6 5.6 0.004 -0.036 693 676 10150 8949 58.7943 58.7943 11.98 
0.508 4 60.00 60.00 5.6 7.9 0.013 -0.042 701 668 10154 8953 58.7943 54.0908 12.01 
0.509 4 60.00 60.00 6.8 5.6 0.009 -0.123 698 628 10158 8957 56.3446 58.7943 12.01 
0.510 4 60.00 60.00 5.6 6.8 0.083 -0.109 729 635 10162 8961 58.7943 56.3446 12.01 
0.511 4 60.00 60.00 5.6 4.3 0.031 -0.121 709 632 10166 8965 58.7943 61.4668 12.01 
0.512 4 60.00 60.00 5.6 5.6 0.016 -0.060 707 661 10170 8969 58.7943 58.7943 12.01 
0.513 4 60.00 60.00 6.8 5.6 0.007 -0.042 696 664 10174 8973 56.3446 58.7943 12.02 
0.514 4 60.00 60.00 5.6 5.6 0.069 -0.047 716 660 10179 8977 58.7943 58.7943 12.02 
0.515 4 60.00 60.00 5.6 5.6 0.031 -0.045 707 659 10183 8981 58.7943 58.7943 12.02 
0.516 4 60.00 60.00 5.6 5.6 0.018 -0.045 703 654 10187 8985 58.7943 58.7943 12.02 
0.517 4 60.00 60.00 5.6 5.6 0.011 -0.047 696 650 10191 8989 58.7943 58.7943 12.02 
0.518 4 60.00 60.00 5.6 5.6 0.007 -0.047 691 649 10195 8994 58.7943 58.7943 11.98 
0.519 4 60.00 60.00 5.6 6.8 0.007 -0.045 692 656 10199 8997 58.7943 56.3446 11.98 
0.520 4 60.00 60.00 5.6 6.8 0.009 -0.098 699 631 10203 9002 58.7943 56.3446 11.98 
0.521 4 60.00 60.00 5.6 6.8 0.007 -0.163 702 617 10207 9006 58.7943 56.3446 11.98 
0.522 4 60.00 60.00 5.6 6.8 0.009 -0.170 697 617 10211 9010 58.7943 56.3446 11.98 
0.523 4 60.00 60.00 5.6 5.6 0.009 -0.196 690 615 10216 9014 58.7943 58.7943 11.96 
0.524 4 60.00 60.00 5.6 6.8 0.007 -0.127 698 629 10220 9018 58.7943 56.3446 11.96 
0.525 4 60.00 60.00 6.8 5.6 0.009 -0.132 692 623 10224 9022 56.3446 58.7943 11.96 
0.526 4 60.00 60.00 5.6 5.6 0.049 -0.094 714 636 10228 9026 58.7943 58.7943 11.96 
0.527 4 60.00 60.00 5.6 5.6 0.051 -0.060 712 651 10232 9030 58.7943 58.7943 11.96 
0.528 4 60.00 60.00 5.6 5.6 0.020 -0.051 703 651 10236 9034 58.7943 58.7943 12.01 
0.529 4 60.00 60.00 5.6 5.6 0.004 -0.047 698 651 10240 9038 58.7943 58.7943 12.01 
0.530 4 60.00 60.00 5.6 5.6 0.011 -0.049 700 645 10244 9042 58.7943 58.7943 12.01 
0.531 4 60.00 60.00 5.6 5.6 0.007 -0.047 698 653 10248 9046 58.7943 58.7943 12.01 
0.532 4 60.00 60.00 5.6 5.6 0.004 -0.049 700 652 10252 9050 58.7943 58.7943 12.01 
0.533 4 60.00 60.00 6.8 5.6 0.007 -0.047 696 653 10256 9054 56.3446 58.7943 11.98 
0.534 4 60.00 60.00 7.9 5.6 0.042 -0.047 710 651 10260 9058 54.0908 58.7943 11.98 
0.535 4 60.00 60.00 5.6 5.6 0.241 -0.049 749 650 10265 9062 58.7943 58.7943 11.98 
0.536 4 60.00 60.00 5.6 6.8 0.185 -0.049 734 655 10269 9066 58.7943 56.3446 11.98 
0.537 4 60.00 60.00 6.8 5.6 0.029 -0.100 708 628 10273 9070 56.3446 58.7943 11.98 
0.538 4 60.00 60.00 4.3 5.6 0.058 -0.092 715 637 10277 9074 61.4668 58.7943 11.98 
0.539 4 60.00 60.00 4.3 5.6 0.033 -0.062 703 643 10281 9078 61.4668 58.7943 11.98 
0.540 4 60.00 60.00 4.2 5.6 0.029 -0.056 673 649 10285 9082 61.4668 58.7943 11.98 
0.541 4 60.00 60.00 4.2 6.8 0.031 -0.054 654 646 10289 9086 61.4668 56.3446 11.98 
0.542 4 60.00 60.00 5.5 5.6 0.033 -0.103 659 633 10293 9090 58.7943 58.7943 11.98 
0.543 4 60.00 60.00 5.5 6.8 0.027 -0.107 672 625 10298 9094 58.7943 56.3446 12.01 
0.544 4 60.00 60.00 5.6 6.8 0.011 -0.116 689 633 10301 9098 58.7943 56.3446 12.01 
0.545 4 60.00 60.00 5.6 6.8 0.009 -0.176 693 618 10306 9102 58.7943 56.3446 12.01 
0.546 4 60.00 60.00 5.6 6.8 0.016 -0.174 695 615 10310 9106 58.7943 56.3446 12.01 
0.547 4 60.00 60.00 5.6 5.6 0.007 -0.201 698 601 10314 9110 58.7943 58.7943 12.01 
0.548 4 60.00 60.00 5.6 6.8 0.011 -0.123 694 635 10318 9114 58.7943 56.3446 12.01 
0.549 4 60.00 60.00 6.8 5.6 0.007 -0.129 701 630 10322 9118 56.3446 58.7943 12.01 
0.550 4 60.00 60.00 5.6 5.6 0.042 -0.094 715 638 10326 9122 58.7943 58.7943 12.01 
0.551 4 60.00 60.00 5.6 5.6 0.089 -0.056 725 651 10330 9126 58.7943 58.7943 12.01 
0.552 4 60.00 60.00 5.6 5.6 0.016 -0.047 702 647 10334 9130 58.7943 58.7943 12.01 
0.553 4 60.00 60.00 5.6 5.6 0.007 -0.047 703 656 10338 9135 58.7943 58.7943 12.01 
0.554 4 60.00 60.00 5.6 5.6 0.007 -0.047 696 654 10342 9139 58.7943 58.7943 12.01 
0.555 4 60.00 60.00 5.6 6.8 0.009 -0.047 700 656 10346 9143 58.7943 56.3446 12.01 
0.556 4 60.00 60.00 5.6 6.8 0.007 -0.094 695 633 10350 9147 58.7943 56.3446 12.01 
0.557 4 60.00 60.00 5.6 6.8 0.011 -0.167 699 620 10354 9151 58.7943 56.3446 12.01 
0.558 4 60.00 60.00 5.6 6.8 0.013 -0.170 695 621 10358 9155 58.7943 56.3446 11.98 
0.559 4 60.00 60.00 5.6 5.6 0.009 -0.194 704 611 10362 9159 58.7943 58.7943 11.98 
0.560 4 60.00 60.00 6.8 6.8 0.009 -0.123 695 629 10366 9163 56.3446 56.3446 11.98 
0.561 4 60.00 60.00 5.6 5.6 0.078 -0.129 715 629 10371 9167 58.7943 58.7943 11.98 
0.562 4 60.00 60.00 5.6 5.6 0.040 -0.094 710 641 10375 9171 58.7943 58.7943 11.98 
0.563 4 60.00 60.00 5.6 5.6 0.027 -0.058 708 651 10379 9175 58.7943 58.7943 12.01 
0.564 4 60.00 60.00 5.6 5.6 0.007 -0.049 697 654 10383 9179 58.7943 58.7943 12.01 
0.565 4 60.00 60.00 5.6 5.6 0.011 -0.049 696 649 10387 9183 58.7943 58.7943 12.01 
0.566 4 60.00 60.00 5.6 5.6 0.011 -0.045 692 650 10391 9187 58.7943 58.7943 12.01 
0.567 4 60.00 60.00 5.6 6.8 0.007 -0.045 702 657 10395 9191 58.7943 56.3446 12.01 
0.568 4 60.00 60.00 5.6 6.8 0.007 -0.089 700 642 10399 9195 58.7943 56.3446 11.94 
0.569 4 60.00 60.00 5.6 6.8 0.007 -0.152 697 622 10403 9199 58.7943 56.3446 11.94 
0.570 4 60.00 60.00 5.6 6.8 0.011 -0.170 694 614 10407 9203 58.7943 56.3446 11.94 
0.571 4 60.00 60.00 5.6 8.9 0.009 -0.185 698 616 10411 9207 58.7943 52.0104 11.94 
0.572 4 60.00 60.00 5.6 5.6 0.009 -0.350 697 589 10415 9211 58.7943 58.7943 11.94 
0.573 4 60.00 60.00 5.6 5.6 0.007 -0.243 697 606 10420 9216 58.7943 58.7943 12.02 
0.574 4 60.00 60.00 5.6 5.6 0.009 -0.094 695 639 10423 9220 58.7943 58.7943 12.02 
0.575 4 60.00 60.00 5.6 5.6 0.009 -0.054 698 648 10428 9224 58.7943 58.7943 12.02 
0.576 4 60.00 60.00 5.6 5.6 0.007 -0.045 698 648 10432 9228 58.7943 58.7943 12.02 
0.577 4 60.00 60.00 5.6 4.3 0.009 -0.047 699 661 10436 9232 58.7943 61.4668 12.02 
0.578 4 60.00 60.00 5.6 6.8 0.004 -0.036 694 677 10440 9236 58.7943 56.3446 12.02 
0.579 4 60.00 60.00 5.6 5.6 0.007 -0.054 704 651 10444 9240 58.7943 58.7943 12.02 
0.580 4 60.00 60.00 5.6 5.6 0.007 -0.065 694 647 10448 9244 58.7943 58.7943 12.02 
0.581 4 60.00 60.00 5.6 5.6 0.007 -0.054 696 646 10452 9248 58.7943 58.7943 12.02 
0.582 4 60.00 60.00 5.6 6.8 0.007 -0.045 694 658 10456 9252 58.7943 56.3446 12.02 
0.583 4 60.00 60.00 5.6 6.8 0.007 -0.089 697 642 10460 9256 58.7943 56.3446 11.99 
0.584 4 60.00 60.00 6.8 5.6 0.009 -0.152 692 624 10464 9261 56.3446 58.7943 11.99 
0.585 4 60.00 60.00 6.8 5.6 0.049 -0.103 712 637 10468 9265 56.3446 58.7943 11.99 
0.586 4 60.00 60.00 5.6 5.6 0.156 -0.054 736 647 10472 9269 58.7943 58.7943 11.99 
0.587 4 60.00 60.00 6.8 5.6 0.100 -0.049 722 654 10476 9273 56.3446 58.7943 11.99 
0.588 4 60.00 60.00 5.6 5.6 0.080 -0.045 723 657 10480 9277 58.7943 58.7943 11.99 
0.589 4 60.00 60.00 5.6 5.6 0.042 -0.047 711 657 10485 9281 58.7943 58.7943 11.99 
0.590 4 60.00 60.00 5.6 5.6 0.009 -0.045 701 654 10489 9285 58.7943 58.7943 11.99 
0.591 4 60.00 60.00 5.6 6.8 0.009 -0.049 700 651 10493 9289 58.7943 56.3446 11.99 
0.592 4 60.00 60.00 5.6 6.8 0.009 -0.085 695 642 10497 9293 58.7943 56.3446 11.99 
0.593 4 60.00 60.00 5.6 6.8 0.007 -0.141 693 626 10501 9297 58.7943 56.3446 11.93 
0.594 4 60.00 60.00 5.6 6.8 0.009 -0.176 693 617 10505 9301 58.7943 56.3446 11.93 
0.595 4 60.00 60.00 5.6 6.8 0.007 -0.183 694 613 10509 9305 58.7943 56.3446 11.93 
0.596 4 60.00 60.00 6.8 5.6 0.007 -0.196 697 612 10513 9309 56.3446 58.7943 11.93 
0.597 4 60.00 60.00 6.8 5.6 0.054 -0.121 716 634 10517 9314 56.3446 58.7943 11.93 
0.598 4 60.00 60.00 5.6 5.6 0.192 -0.060 739 654 10521 9318 58.7943 58.7943 11.94 
0.599 4 60.00 60.00 5.6 5.6 0.109 -0.047 729 652 10525 9322 58.7943 58.7943 11.94 
0.600 4 60.00 60.00 5.6 5.6 0.018 -0.047 709 651 10529 9326 58.7943 58.7943 11.94 
0.601 4 60.00 60.00 5.6 5.6 0.011 -0.047 698 656 10534 9330 58.7943 58.7943 11.94 
0.602 4 60.00 60.00 5.6 6.8 0.007 -0.047 700 658 10538 9334 58.7943 56.3446 11.94 
0.603 4 60.00 60.00 5.6 5.6 0.004 -0.089 696 638 10542 9338 58.7943 58.7943 11.98 
0.604 4 60.00 60.00 5.6 5.6 0.007 -0.096 697 632 10546 9342 58.7943 58.7943 11.98 
0.605 4 60.00 60.00 5.6 5.6 0.007 -0.056 692 650 10550 9346 58.7943 58.7943 11.98 
0.606 4 60.00 60.00 4.3 4.3 0.007 -0.047 701 652 10554 9350 61.4668 61.4668 11.98 
0.607 4 60.00 60.00 4.3 5.6 0.025 -0.038 679 675 10558 9354 61.4668 58.7943 11.98 
0.608 4 60.00 60.00 5.6 4.3 0.033 -0.040 666 665 10563 9359 58.7943 61.4668 12.01 
0.609 4 60.00 60.00 5.6 4.3 0.025 -0.036 677 672 10567 9362 58.7943 61.4668 12.01 
0.610 4 60.00 60.00 5.6 5.6 0.009 -0.025 689 688 10571 9367 58.7943 58.7943 12.01 
0.611 4 60.00 60.00 5.6 5.6 0.007 -0.038 696 674 10575 9371 58.7943 58.7943 12.01 
0.612 4 60.00 60.00 5.6 6.8 0.007 -0.045 694 661 10579 9375 58.7943 56.3446 12.01 
0.613 4 60.00 60.00 5.6 5.6 0.009 -0.094 693 634 10583 9379 58.7943 58.7943 11.99 
0.614 4 60.00 60.00 5.6 6.8 0.011 -0.103 703 637 10587 9383 58.7943 56.3446 11.99 
0.615 4 60.00 60.00 5.6 6.8 0.004 -0.116 696 634 10591 9386 58.7943 56.3446 11.99 
0.616 4 60.00 60.00 5.6 6.8 0.009 -0.179 701 613 10595 9390 58.7943 56.3446 11.99 
0.617 4 60.00 60.00 5.6 6.8 0.007 -0.174 695 614 10599 9394 58.7943 56.3446 11.99 
0.618 4 60.00 60.00 5.6 5.6 0.009 -0.201 699 613 10603 9399 58.7943 58.7943 11.93 
0.619 4 60.00 60.00 6.8 6.8 0.007 -0.125 696 633 10607 9403 56.3446 56.3446 11.93 
0.620 4 60.00 60.00 5.6 5.6 0.060 -0.141 708 627 10611 9407 58.7943 58.7943 11.93 
0.621 4 60.00 60.00 5.6 5.6 0.045 -0.098 714 634 10615 9411 58.7943 58.7943 11.93 
0.622 4 60.00 60.00 5.6 5.6 0.029 -0.060 709 649 10619 9415 58.7943 58.7943 11.93 
0.623 4 60.00 60.00 5.6 5.6 0.007 -0.049 701 651 10624 9419 58.7943 58.7943 12.01 
0.624 4 60.00 60.00 5.6 5.6 0.007 -0.051 700 655 10628 9423 58.7943 58.7943 12.01 
0.625 4 60.00 60.00 5.6 5.6 0.007 -0.047 696 654 10632 9427 58.7943 58.7943 12.01 
0.626 4 60.00 60.00 5.6 6.8 0.007 -0.047 699 650 10636 9431 58.7943 56.3446 12.01 
0.627 4 60.00 60.00 5.6 6.8 0.007 -0.089 695 629 10640 9435 58.7943 56.3446 12.01 
0.628 4 60.00 60.00 5.6 6.8 0.009 -0.154 699 623 10644 9439 58.7943 56.3446 11.98 
0.629 4 60.00 60.00 5.6 6.8 0.009 -0.170 690 620 10648 9443 58.7943 56.3446 11.98 
0.630 4 60.00 60.00 5.6 5.6 0.009 -0.185 699 611 10652 9447 58.7943 58.7943 11.98 
0.631 4 60.00 60.00 6.8 6.8 0.004 -0.118 696 622 10656 9451 56.3446 56.3446 11.98 
0.632 4 60.00 60.00 5.6 5.6 0.051 -0.123 714 628 10660 9455 58.7943 58.7943 11.98 
0.633 4 60.00 60.00 5.6 5.6 0.054 -0.092 718 640 10664 9459 58.7943 58.7943 11.99 
0.634 4 60.00 60.00 5.6 5.6 0.022 -0.054 707 648 10668 9463 58.7943 58.7943 11.99 
0.635 4 60.00 60.00 5.6 5.6 0.009 -0.047 695 660 10672 9468 58.7943 58.7943 11.99 
0.636 4 60.00 60.00 6.8 4.3 0.007 -0.049 698 653 10676 9472 56.3446 61.4668 11.99 
0.637 4 60.00 60.00 5.6 4.3 0.049 -0.038 714 671 10680 9476 58.7943 61.4668 11.99 
0.638 4 60.00 60.00 5.6 5.6 0.056 -0.031 709 674 10685 9480 58.7943 58.7943 12.01 
0.639 4 60.00 60.00 5.6 6.8 0.009 -0.040 700 677 10689 9484 58.7943 56.3446 12.01 
0.640 4 60.00 60.00 5.6 6.8 0.009 -0.076 697 643 10693 9488 58.7943 56.3446 12.01 
0.641 4 60.00 60.00 5.6 6.8 0.009 -0.143 697 622 10697 9492 58.7943 56.3446 12.01 
0.642 4 60.00 60.00 5.6 6.8 0.009 -0.170 699 615 10701 9496 58.7943 56.3446 12.01 
0.643 4 60.00 60.00 6.8 5.6 0.009 -0.188 698 615 10705 9500 56.3446 58.7943 11.96 
0.644 4 60.00 60.00 4.3 5.6 0.040 -0.127 710 631 10709 9504 61.4668 58.7943 11.96 
0.645 4 60.00 60.00 4.3 5.6 0.025 -0.065 695 649 10713 9508 61.4668 58.7943 11.96 
0.646 4 60.00 60.00 4.2 5.6 0.027 -0.049 673 648 10717 9512 61.4668 58.7943 11.96 
0.647 4 60.00 60.00 4.2 5.6 0.033 -0.047 660 651 10721 9516 61.4668 58.7943 11.96 
0.648 4 60.00 60.00 5.5 6.8 0.033 -0.051 661 653 10725 9520 58.7943 56.3446 12.04 
0.649 4 60.00 60.00 6.7 5.6 0.025 -0.083 674 641 10729 9524 56.3446 58.7943 12.04 
0.650 4 60.00 60.00 6.8 5.6 0.042 -0.083 706 642 10733 9528 56.3446 58.7943 12.04 
0.651 4 60.00 60.00 6.8 6.8 0.156 -0.054 736 651 10737 9532 56.3446 56.3446 12.04 
0.652 4 60.00 60.00 5.6 5.6 0.170 -0.094 737 638 10741 9536 58.7943 58.7943 12.04 
0.653 4 60.00 60.00 5.6 5.6 0.127 -0.083 728 645 10746 9540 58.7943 58.7943 11.99 
0.654 4 60.00 60.00 5.6 6.8 0.022 -0.058 705 642 10750 9544 58.7943 56.3446 11.99 
0.655 4 60.00 60.00 6.8 5.6 0.007 -0.094 700 631 10754 9549 56.3446 58.7943 11.99 
0.656 4 60.00 60.00 5.6 5.6 0.045 -0.085 711 643 10758 9553 58.7943 58.7943 11.99 
0.657 4 60.00 60.00 5.6 5.6 0.092 -0.051 726 659 10762 9557 58.7943 58.7943 11.99 
0.658 4 60.00 60.00 5.6 5.6 0.016 -0.049 703 646 10766 9561 58.7943 58.7943 12.01 
0.659 4 60.00 60.00 5.6 5.6 0.009 -0.049 700 653 10770 9565 58.7943 58.7943 12.01 
0.660 4 60.00 60.00 5.6 5.6 0.007 -0.049 697 651 10774 9569 58.7943 58.7943 12.01 
0.661 4 60.00 60.00 5.6 5.6 0.004 -0.047 702 659 10778 9573 58.7943 58.7943 12.01 
0.662 4 60.00 60.00 5.6 6.8 0.007 -0.047 702 655 10782 9577 58.7943 56.3446 12.01 
0.663 4 60.00 60.00 5.6 6.8 0.007 -0.089 701 638 10787 9581 58.7943 56.3446 11.99 
0.664 4 60.00 60.00 5.6 6.8 0.009 -0.145 693 617 10791 9585 58.7943 56.3446 11.99 
0.665 4 60.00 60.00 5.6 6.8 0.011 -0.179 696 612 10795 9589 58.7943 56.3446 11.99 
0.666 4 60.00 60.00 5.6 6.8 0.004 -0.181 695 611 10799 9593 58.7943 56.3446 11.99 
0.667 4 60.00 60.00 5.6 5.6 0.013 -0.192 694 616 10803 9597 58.7943 58.7943 11.99 
0.668 4 60.00 60.00 5.6 5.6 0.004 -0.116 693 634 10807 9601 58.7943 58.7943 11.98 
0.669 4 60.00 60.00 5.6 5.6 0.009 -0.060 701 652 10811 9605 58.7943 58.7943 11.98 
0.670 4 60.00 60.00 5.6 5.6 0.004 -0.051 698 645 10815 9609 58.7943 58.7943 11.98 
0.671 4 60.00 60.00 5.6 5.6 0.007 -0.049 696 653 10819 9613 58.7943 58.7943 11.98 
0.672 4 60.00 60.00 5.6 5.6 0.004 -0.049 695 652 10823 9617 58.7943 58.7943 11.98 
0.673 4 60.00 60.00 5.6 8.9 0.007 -0.047 702 657 10827 9621 58.7943 52.0104 11.99 
0.674 4 60.00 60.00 5.6 6.8 0.009 -0.221 699 610 10831 9625 58.7943 56.3446 11.99 
0.675 4 60.00 60.00 5.6 6.8 0.013 -0.292 696 584 10835 9629 58.7943 56.3446 11.99 
0.676 4 60.00 60.00 5.6 5.6 0.009 -0.219 694 610 10840 9633 58.7943 58.7943 11.99 
0.677 4 60.00 60.00 5.6 4.3 0.007 -0.134 699 628 10844 9638 58.7943 61.4668 11.99 
0.678 4 60.00 60.00 6.8 5.6 0.004 -0.054 692 663 10848 9642 56.3446 58.7943 12.07 
0.679 4 60.00 60.00 5.6 4.3 0.045 -0.040 712 670 10852 9646 58.7943 61.4668 12.07 
0.680 4 60.00 60.00 5.6 4.3 0.042 -0.036 711 677 10856 9650 58.7943 61.4668 12.07 
0.681 4 60.00 60.00 5.6 5.6 0.018 -0.018 705 692 10860 9654 58.7943 58.7943 12.07 
0.682 4 60.00 60.00 5.6 5.6 0.004 -0.038 699 673 10864 9658 58.7943 58.7943 12.07 
0.683 4 60.00 60.00 5.6 5.6 0.004 -0.042 697 665 10868 9662 58.7943 58.7943 11.99 
0.684 4 60.00 60.00 5.6 5.6 0.009 -0.047 694 652 10872 9666 58.7943 58.7943 11.99 
0.685 4 60.00 60.00 5.6 6.8 0.007 -0.042 703 648 10876 9670 58.7943 56.3446 11.99 
0.686 4 60.00 60.00 5.6 5.6 0.011 -0.094 695 636 10880 9674 58.7943 58.7943 11.99 
0.687 4 60.00 60.00 6.8 5.6 0.004 -0.096 696 635 10884 9678 56.3446 58.7943 11.99 
0.688 4 60.00 60.00 5.6 5.6 0.042 -0.065 713 647 10889 9682 58.7943 58.7943 11.98 
0.689 4 60.00 60.00 5.6 5.6 0.051 -0.045 711 648 10893 9686 58.7943 58.7943 11.98 
0.690 4 60.00 60.00 6.8 6.8 0.009 -0.051 699 653 10897 9690 56.3446 56.3446 11.98 
0.691 4 60.00 60.00 5.6 5.6 0.056 -0.098 713 640 10901 9694 58.7943 58.7943 11.98 
0.692 4 60.00 60.00 5.6 5.6 0.060 -0.092 723 641 10905 9698 58.7943 58.7943 11.98 
0.693 4 60.00 60.00 5.6 5.6 0.016 -0.060 704 644 10909 9702 58.7943 58.7943 12.01 
0.694 4 60.00 60.00 5.6 5.6 0.009 -0.051 695 648 10913 9706 58.7943 58.7943 12.01 
0.695 4 60.00 60.00 5.6 5.6 0.007 -0.049 696 655 10917 9710 58.7943 58.7943 12.01 
0.696 4 60.00 60.00 5.6 5.6 0.004 -0.049 693 654 10921 9714 58.7943 58.7943 12.01 
0.697 4 60.00 60.00 5.6 6.8 0.007 -0.049 693 654 10925 9718 58.7943 56.3446 12.01 
0.698 4 60.00 60.00 5.6 6.8 0.009 -0.100 693 629 10930 9722 58.7943 56.3446 11.99 
0.699 4 60.00 60.00 5.6 6.8 0.013 -0.172 696 618 10934 9726 58.7943 56.3446 11.99 
0.700 4 60.00 60.00 5.6 6.8 0.007 -0.179 699 617 10938 9730 58.7943 56.3446 11.99 
0.701 4 60.00 60.00 5.6 5.6 0.009 -0.203 695 609 10942 9734 58.7943 58.7943 11.99 
0.702 4 60.00 60.00 6.8 6.8 0.007 -0.127 699 626 10946 9738 56.3446 56.3446 11.99 
0.703 4 60.00 60.00 5.6 5.6 0.045 -0.134 714 627 10950 9742 58.7943 58.7943 11.94 
0.704 4 60.00 60.00 5.6 5.6 0.098 -0.103 729 637 10954 9746 58.7943 58.7943 11.94 
0.705 4 60.00 60.00 5.6 5.6 0.016 -0.065 705 649 10958 9750 58.7943 58.7943 11.94 
0.706 4 60.00 60.00 5.6 5.6 0.009 -0.051 700 647 10962 9754 58.7943 58.7943 11.94 
0.707 4 60.00 60.00 5.6 5.6 0.007 -0.049 696 644 10966 9758 58.7943 58.7943 11.94 
0.708 4 60.00 60.00 5.6 6.8 0.007 -0.051 702 652 10970 9762 58.7943 56.3446 11.99 
0.709 4 60.00 60.00 5.6 6.8 0.002 -0.092 696 641 10974 9766 58.7943 56.3446 11.99 
0.710 4 60.00 60.00 5.6 6.8 0.009 -0.147 699 619 10979 9770 58.7943 56.3446 11.99 
0.711 4 60.00 60.00 5.6 6.8 0.007 -0.190 696 607 10983 9774 58.7943 56.3446 11.99 
0.712 4 60.00 60.00 5.6 6.8 0.009 -0.176 701 621 10987 9778 58.7943 56.3446 11.99 
0.713 4 60.00 60.00 6.8 5.6 0.009 -0.194 695 607 10991 9782 56.3446 58.7943 11.96 
0.714 4 60.00 60.00 5.6 5.6 0.054 -0.118 714 625 10995 9787 58.7943 58.7943 11.96 
0.715 4 60.00 60.00 5.6 5.6 0.036 -0.076 717 645 10999 9791 58.7943 58.7943 11.96 
0.716 4 60.00 60.00 5.6 5.6 0.025 -0.049 706 657 11003 9795 58.7943 58.7943 11.96 
0.717 4 60.00 60.00 5.6 5.6 0.009 -0.045 696 658 11007 9799 58.7943 58.7943 11.96 
0.718 4 60.00 60.00 5.6 5.6 0.007 -0.045 694 650 11012 9803 58.7943 58.7943 12.01 
0.719 4 60.00 60.00 5.6 5.6 0.007 -0.047 695 661 11015 9807 58.7943 58.7943 12.01 
0.720 4 60.00 60.00 5.6 4.3 0.007 -0.047 698 656 11020 9811 58.7943 61.4668 12.01 
0.721 4 60.00 60.00 5.6 5.6 0.007 -0.038 693 675 11024 9815 58.7943 58.7943 12.01 
0.722 4 60.00 60.00 5.6 5.6 0.009 -0.040 697 669 11028 9819 58.7943 58.7943 12.01 
0.723 4 60.00 60.00 5.6 6.8 0.007 -0.042 691 660 11032 9823 58.7943 56.3446 11.99 
0.724 4 60.00 60.00 5.6 5.6 0.011 -0.078 698 642 11036 9827 58.7943 58.7943 11.99 
0.725 4 60.00 60.00 6.8 6.8 0.013 -0.085 695 634 11040 9831 56.3446 56.3446 11.99 
0.726 4 60.00 60.00 5.6 6.8 0.047 -0.112 713 634 11044 9835 58.7943 56.3446 11.99 
0.727 4 60.00 60.00 5.6 5.6 0.042 -0.158 710 627 11048 9839 58.7943 58.7943 11.99 
0.728 4 60.00 60.00 5.6 5.6 0.018 -0.107 701 632 11053 9843 58.7943 58.7943 11.99 
0.729 4 60.00 60.00 5.6 5.6 0.007 -0.062 699 645 11057 9847 58.7943 58.7943 11.99 
0.730 4 60.00 60.00 5.6 5.6 0.007 -0.051 698 652 11061 9851 58.7943 58.7943 11.99 
0.731 4 60.00 60.00 5.6 4.3 0.007 -0.049 697 652 11065 9856 58.7943 61.4668 11.99 
0.732 4 60.00 60.00 5.6 5.6 0.004 -0.040 698 674 11069 9860 58.7943 58.7943 11.99 
0.733 4 60.00 60.00 5.6 6.8 0.004 -0.042 696 665 11073 9864 58.7943 56.3446 12.01 
0.734 4 60.00 60.00 5.6 6.8 0.011 -0.074 699 641 11077 9868 58.7943 56.3446 12.01 
0.735 4 60.00 60.00 5.6 6.8 0.007 -0.141 700 627 11081 9872 58.7943 56.3446 12.01 
0.736 4 60.00 60.00 5.6 6.8 0.007 -0.170 699 617 11085 9875 58.7943 56.3446 12.01 
0.737 4 60.00 60.00 6.8 6.8 0.009 -0.185 694 613 11089 9879 56.3446 56.3446 12.01 
0.738 4 60.00 60.00 5.6 5.6 0.040 -0.190 711 612 11094 9884 58.7943 58.7943 11.94 
0.739 4 60.00 60.00 5.6 5.6 0.078 -0.129 718 635 11098 9888 58.7943 58.7943 11.94 
0.740 4 60.00 60.00 5.6 5.6 0.016 -0.065 701 648 11102 9892 58.7943 58.7943 11.94 
0.741 4 60.00 60.00 5.6 5.6 0.009 -0.051 699 648 11106 9896 58.7943 58.7943 11.94 
0.742 4 60.00 60.00 5.6 5.6 0.011 -0.047 696 647 11110 9900 58.7943 58.7943 11.94 
0.743 4 60.00 60.00 5.6 4.3 0.007 -0.049 706 655 11114 9904 58.7943 61.4668 11.99 
0.744 4 60.00 60.00 5.6 4.3 0.007 -0.040 699 670 11118 9908 58.7943 61.4668 11.99 
0.745 4 60.00 60.00 5.6 5.6 0.004 -0.033 702 680 11122 9912 58.7943 58.7943 11.99 
0.746 4 60.00 60.00 5.6 5.6 0.007 -0.036 692 664 11126 9916 58.7943 58.7943 11.99 
0.747 4 60.00 60.00 7.9 5.6 0.009 -0.045 701 660 11130 9920 54.0908 58.7943 11.99 
0.748 4 60.00 60.00 6.8 6.8 0.127 -0.045 733 660 11135 9924 56.3446 56.3446 11.94 
0.749 4 60.00 60.00 5.6 6.8 0.292 -0.092 755 642 11139 9928 58.7943 56.3446 11.94 
0.750 4 60.00 60.00 5.6 5.6 0.107 -0.161 723 619 11143 9932 58.7943 58.7943 11.94 
0.751 4 60.00 60.00 5.6 5.6 0.036 -0.116 708 633 11147 9936 58.7943 58.7943 11.94 
0.752 4 60.00 60.00 5.6 5.6 0.011 -0.065 696 648 11151 9940 58.7943 58.7943 11.94 
0.753 4 60.00 60.00 5.6 5.6 0.004 -0.051 696 652 11155 9944 58.7943 58.7943 12.01 
0.754 4 60.00 60.00 5.6 5.6 0.009 -0.047 696 654 11159 9948 58.7943 58.7943 12.01 
0.755 4 60.00 60.00 5.6 5.6 0.007 -0.051 700 646 11164 9952 58.7943 58.7943 12.01 
0.756 4 60.00 60.00 5.6 5.6 0.007 -0.047 695 658 11168 9956 58.7943 58.7943 12.01 
0.757 4 60.00 60.00 5.6 6.8 0.009 -0.047 698 654 11172 9960 58.7943 56.3446 12.01 
0.758 4 60.00 60.00 5.6 6.8 0.011 -0.087 691 638 11176 9964 58.7943 56.3446 11.98 
0.759 4 60.00 60.00 4.3 6.8 0.007 -0.147 697 619 11180 9968 61.4668 56.3446 11.98 
0.760 4 60.00 60.00 5.6 6.8 0.022 -0.176 675 611 11184 9972 58.7943 56.3446 11.98 
0.761 4 60.00 60.00 4.3 6.8 0.018 -0.190 681 616 11189 9976 61.4668 56.3446 11.98 
0.762 4 60.00 60.00 4.3 6.8 0.029 -0.194 670 607 11193 9980 61.4668 56.3446 11.98 
0.763 4 60.00 60.00 4.2 5.6 0.036 -0.185 662 615 11197 9984 61.4668 58.7943 11.99 
0.764 4 60.00 60.00 4.2 5.6 0.033 -0.121 655 625 11201 9988 61.4668 58.7943 11.99 
0.765 4 60.00 60.00 4.2 5.6 0.031 -0.065 665 645 11205 9993 61.4668 58.7943 11.99 
0.766 4 60.00 60.00 5.5 5.6 0.036 -0.049 658 655 11209 9997 58.7943 58.7943 11.99 
0.767 4 60.00 60.00 5.5 5.6 0.018 -0.049 681 651 11213 10001 58.7943 58.7943 11.99 
0.768 4 60.00 60.00 5.5 5.6 0.009 -0.047 692 658 11217 10005 58.7943 58.7943 12.01 
0.769 4 60.00 60.00 5.5 6.8 0.009 -0.049 697 646 11221 10009 58.7943 56.3446 12.01 
0.770 4 60.00 60.00 5.6 6.8 0.009 -0.083 699 644 11225 10013 58.7943 56.3446 12.01 
0.771 4 60.00 60.00 5.6 6.8 0.007 -0.138 700 626 11229 10017 58.7943 56.3446 12.01 
0.772 4 60.00 60.00 6.8 6.8 0.007 -0.170 697 618 11233 10021 56.3446 56.3446 12.01 
0.773 4 60.00 60.00 5.6 6.8 0.054 -0.176 716 614 11237 10025 58.7943 56.3446 11.93 
0.774 4 60.00 60.00 5.6 5.6 0.085 -0.188 724 616 11241 10029 58.7943 58.7943 11.93 
0.775 4 60.00 60.00 5.6 5.6 0.025 -0.114 709 633 11245 10033 58.7943 58.7943 11.93 
0.776 4 60.00 60.00 5.6 5.6 0.007 -0.058 699 650 11249 10037 58.7943 58.7943 11.93 
0.777 4 60.00 60.00 5.6 5.6 0.007 -0.049 699 650 11253 10041 58.7943 58.7943 11.93 
0.778 4 60.00 60.00 5.6 5.6 0.007 -0.049 697 647 11257 10046 58.7943 58.7943 11.99 
0.779 4 60.00 60.00 5.6 4.3 0.007 -0.047 704 654 11261 10050 58.7943 61.4668 11.99 
0.780 4 60.00 60.00 5.6 5.6 0.007 -0.038 696 676 11265 10054 58.7943 58.7943 11.99 
0.781 4 60.00 60.00 5.6 5.6 0.007 -0.040 696 670 11269 10058 58.7943 58.7943 11.99 
0.782 4 60.00 60.00 5.6 5.6 0.007 -0.045 698 659 11273 10062 58.7943 58.7943 11.99 
0.783 4 60.00 60.00 5.6 5.6 0.007 -0.045 698 644 11277 10066 58.7943 58.7943 12.01 
0.784 4 60.00 60.00 6.8 5.6 0.004 -0.045 697 655 11281 10070 56.3446 58.7943 12.01 
0.785 4 60.00 60.00 5.6 6.8 0.051 -0.047 712 651 11285 10074 58.7943 56.3446 12.01 
0.786 4 60.00 60.00 5.6 5.6 0.085 -0.094 727 637 11289 10078 58.7943 58.7943 12.01 
0.787 4 60.00 60.00 5.6 5.6 0.020 -0.087 711 631 11293 10082 58.7943 58.7943 12.01 
0.788 4 60.00 60.00 5.6 5.6 0.007 -0.058 704 647 11298 10086 58.7943 58.7943 12.01 
0.789 4 60.00 60.00 5.6 5.6 0.007 -0.051 698 650 11301 10090 58.7943 58.7943 12.01 
0.790 4 60.00 60.00 5.6 5.6 0.004 -0.049 705 646 11305 10094 58.7943 58.7943 12.01 
0.791 4 60.00 60.00 5.6 5.6 0.007 -0.049 701 650 11310 10098 58.7943 58.7943 12.01 
0.792 4 60.00 60.00 5.6 6.8 0.007 -0.047 700 652 11314 10102 58.7943 56.3446 12.01 
0.793 4 60.00 60.00 5.6 6.8 0.011 -0.096 695 637 11318 10106 58.7943 56.3446 11.98 
0.794 4 60.00 60.00 5.6 6.8 0.011 -0.165 698 615 11322 10110 58.7943 56.3446 11.98 
