%% logfile from robot Tania (57)
% Tania (57)
%  1    time 0.211 sec
%  2  3 Motor voltage [V] left, right: 6.06 6.00
%  4  5 Wheel velocity [m/s] left, right: 0.7436 0.8232
%  6    Battery voltage [V]: 11.87
%  7  9 Chirp frequency =785.062 rad/s, phase=0.785062 rad, value=0.706869
0.211 6.06 6.00 0.7436 0.8232 11.87 785.062 0.785062 0.706869 
0.211 7.53 7.47 0.7771 0.8042 11.86 784.726 1.56979 0.999999 
0.212 6.06 6.03 0.7949 0.6760 11.84 784.391 2.35418 0.708531 
0.213 2.54 2.49 0.7787 0.8384 11.84 784.055 3.13823 0.00335899 
0.214 -0.99 -1.05 0.8573 0.7117 11.86 783.719 3.92195 -0.703536 
0.215 -2.47 -2.53 0.8098 0.9009 11.86 783.384 4.70534 -0.999975 
0.216 -1.04 -1.10 0.8922 0.8157 11.86 783.049 5.48839 -0.713723 
0.217 2.47 2.41 0.7791 0.8689 11.87 782.714 6.2711 -0.0120845 
0.218 6.01 5.95 0.8000 0.7768 11.88 782.379 0.770294 0.696347 
0.219 7.53 7.47 0.8263 0.8104 11.87 782.044 1.55234 0.99983 
0.220 6.14 6.08 0.7788 0.7882 11.83 781.71 2.33405 0.722592 
0.221 2.66 2.60 0.7619 0.8036 11.83 781.375 3.11542 0.0261662 
0.222 -0.90 -0.95 0.8196 0.7543 11.85 781.041 3.89646 -0.685195 
0.223 -2.48 -2.51 0.9088 0.8740 11.87 780.707 4.67717 -0.99938 
0.224 -1.14 -1.21 0.7309 0.8008 11.85 780.373 5.45754 -0.734983 
0.225 2.29 2.25 0.8708 0.7457 11.86 780.039 6.23758 -0.0455868 
0.226 5.88 5.82 0.6933 0.8127 11.88 779.705 0.734102 0.669921 
0.227 7.51 7.47 0.8016 0.7622 11.87 779.371 1.51347 0.998358 
0.228 6.27 6.24 0.7968 0.7790 11.84 779.038 2.29251 0.750673 
0.229 2.87 2.83 0.8150 0.8046 11.82 778.705 3.07122 0.070318 
0.230 -0.73 -0.77 0.7943 0.7904 11.85 778.372 3.84959 -0.650312 
0.231 -2.45 -2.51 0.8456 0.8310 11.87 778.038 4.62763 -0.99641 
0.232 -1.32 -1.38 0.8282 0.8398 11.86 777.706 5.40533 -0.769369 
0.233 2.03 1.97 0.8718 0.8674 11.86 777.373 6.1827 -0.100311 
0.234 5.66 5.60 0.7529 0.7870 11.87 777.04 0.67656 0.626115 
0.235 7.50 7.43 0.8256 0.6547 11.87 776.708 1.45327 0.993101 
0.236 6.48 6.42 0.6925 0.8263 11.85 776.375 2.22964 0.790699 
0.237 3.19 3.16 0.8629 0.7189 11.82 776.043 3.00569 0.135488 
0.238 -0.45 -0.52 0.7152 0.8512 11.84 775.711 3.7814 -0.597039 
0.239 -2.41 -2.47 0.8911 0.7480 11.88 775.379 4.55678 -0.987917 
0.240 -1.54 -1.60 0.7228 0.8461 11.87 775.048 5.33183 -0.814206 
0.241 1.65 1.59 0.8257 0.7431 11.87 774.716 6.10654 -0.175727 
0.242 5.34 5.28 0.8634 0.8059 11.87 774.385 0.59774 0.562776 
0.243 7.43 7.37 0.8436 0.8449 11.88 774.053 1.37179 0.980264 
0.244 6.73 6.66 0.7083 0.7787 11.86 773.722 2.14552 0.839345 
0.245 3.64 3.57 0.8103 0.6788 11.83 773.391 2.91891 0.22085 
0.246 -0.08 -0.15 0.7282 0.8554 11.84 773.06 3.69197 -0.523006 
0.247 -2.33 -2.37 0.8823 0.7436 11.87 772.729 4.4647 -0.969481 
0.248 -1.81 -1.85 0.8040 0.8822 11.86 772.399 5.23709 -0.865471 
0.249 1.17 1.13 0.8673 0.7314 11.88 772.068 6.00916 -0.270606 
0.250 4.91 4.87 0.7670 0.8191 11.87 771.738 0.497716 0.47742 
0.251 7.29 7.25 0.7859 0.7068 11.88 771.408 1.26912 0.954841 
0.252 6.98 6.94 0.8032 0.7906 11.85 771.078 2.0402 0.891838 
0.253 4.14 4.10 0.7979 0.7490 11.83 770.748 2.81095 0.324652 
0.254 0.39 0.35 0.8163 0.7994 11.84 770.418 3.58137 -0.425735 
0.255 -2.16 -2.20 0.8440 0.8271 11.86 770.088 4.35145 -0.935567 
0.256 -2.07 -2.11 0.8592 0.8413 11.87 769.759 5.12121 -0.917589 
0.257 0.62 0.55 0.8666 0.8574 11.86 769.43 5.89064 -0.382538 
0.258 4.37 4.30 0.8126 0.8095 11.87 769.1 0.376558 0.367722 
0.259 7.07 7.03 0.7887 0.6629 11.88 768.771 1.14533 0.910846 
0.260 7.23 7.19 0.7958 0.8264 11.87 768.442 1.91377 0.941758 
0.261 4.75 4.68 0.7876 0.8892 11.84 768.114 2.68189 0.443686 
0.262 1.00 0.96 0.8811 0.9061 11.83 767.785 3.44967 -0.303227 
0.263 -1.86 -1.93 0.7581 0.7446 11.86 767.456 4.21713 -0.879844 
0.264 -2.28 -2.35 0.8429 0.8678 11.87 767.128 4.98425 -0.963272 
0.265 -0.00 -0.07 0.8953 0.7939 11.87 766.8 5.75105 -0.507371 
0.266 3.69 3.63 0.8790 0.8281 11.87 766.472 0.234341 0.232202 
0.267 6.74 6.67 0.7051 0.7819 11.89 766.144 1.00048 0.841733 
0.268 7.44 7.37 0.8137 0.7921 11.87 765.816 1.7663 0.98095 
0.269 5.40 5.33 0.6853 0.7961 11.83 765.488 2.53179 0.572706 
0.270 1.76 1.69 0.8595 0.8621 11.82 765.161 3.29695 -0.154733 
0.271 -1.44 -1.51 0.7279 0.7843 11.85 764.833 4.06178 -0.795717 
0.272 -2.43 -2.50 0.8800 0.8777 11.87 764.506 4.82629 -0.99352 
0.273 -0.66 -0.73 0.7214 0.7870 11.86 764.179 5.59047 -0.63863 
0.274 2.89 2.82 0.8037 0.8316 11.86 763.852 0.0711357 0.0710757 
0.275 6.24 6.17 0.7978 0.7783 11.88 763.525 0.834661 0.741069 
0.276 7.53 7.46 0.7788 0.7920 11.87 763.199 1.59786 0.999634 
0.277 6.05 5.98 0.7381 0.7820 11.83 762.872 2.36073 0.703891 
0.279 -0.85 -0.92 0.7999 0.8179 11.84 762.219 3.8855 -0.677166 
0.280 -2.45 -2.52 0.8714 0.8455 11.87 761.893 4.64739 -0.997888 
0.281 -1.30 -1.37 0.7821 0.8555 11.86 761.567 5.40896 -0.767048 
0.282 1.97 1.90 0.8648 0.8332 11.86 761.242 6.1702 -0.112746 
0.283 5.55 5.48 0.6965 0.7806 11.87 760.916 0.647929 0.603537 
0.284 7.47 7.40 0.8389 0.7925 11.87 760.59 1.40852 0.986862 
0.285 6.67 6.60 0.6732 0.7735 11.84 760.265 2.16878 0.82647 
0.286 3.59 3.52 0.8806 0.8413 11.82 759.94 2.92872 0.211265 
0.287 -0.06 -0.14 0.7040 0.7724 11.84 759.614 3.68834 -0.51991 
0.288 -2.29 -2.36 0.8240 0.8480 11.86 759.289 4.44763 -0.965155 
0.289 -1.86 -1.94 0.8865 0.7961 11.87 758.965 5.20659 -0.880347 
0.290 0.96 0.91 0.8457 0.8427 11.86 758.64 5.96523 -0.312623 
0.291 4.67 4.59 0.7133 0.7932 11.88 758.315 0.440362 0.426267 
0.292 7.19 7.12 0.8132 0.7941 11.88 757.991 1.19835 0.931441 
0.293 7.17 7.10 0.6711 0.7755 11.85 757.666 1.95602 0.926715 
0.294 4.61 4.54 0.8697 0.8334 11.81 757.342 2.71336 0.415263 
0.295 0.92 0.85 0.7027 0.7585 11.82 757.018 3.47038 -0.322895 
0.296 -1.89 -1.96 0.8611 0.8561 11.85 756.694 4.22707 -0.884528 
0.297 -2.28 -2.35 0.7304 0.7881 11.86 756.371 4.98344 -0.963489 
0.298 -0.06 -0.11 0.8229 0.8516 11.85 756.047 5.73949 -0.517301 
0.299 3.56 3.54 0.8211 1.0282 11.86 755.724 0.21203 0.210445 
0.300 6.63 6.61 0.7665 0.8032 11.88 755.4 0.96743 0.82343 
0.301 7.47 7.42 0.7381 0.7732 11.86 755.077 1.72251 0.988514 
0.302 5.61 5.56 0.7951 0.7712 11.83 754.754 2.47726 0.616533 
0.303 2.07 2.03 0.7761 0.7847 11.82 754.431 3.23169 -0.0899771 
0.304 -1.23 -1.25 0.8442 0.8252 11.85 754.108 3.9858 -0.747445 
0.305 -2.49 -2.51 0.8247 0.8471 11.87 753.786 4.73959 -0.99963 
0.307 2.33 2.30 0.7704 0.7488 11.86 753.141 6.24619 -0.0369878 
0.308 5.79 5.77 0.7737 0.8201 11.87 752.818 0.715822 0.656238 
0.309 7.48 7.46 0.7810 0.7701 11.87 752.496 1.46832 0.994754 
0.310 6.49 6.47 0.7745 0.7989 11.84 752.174 2.22049 0.796267 
0.311 3.35 3.33 0.7401 0.7996 11.82 751.853 2.97235 0.16844 
0.312 -0.24 -0.26 0.8081 0.8409 11.84 751.531 3.72388 -0.549933 
0.313 -2.35 -2.37 0.8674 0.7935 11.85 751.209 4.47509 -0.971975 
0.314 -1.84 -1.86 0.8584 0.8597 11.86 750.888 5.22597 -0.870989 
0.315 1.00 0.98 0.7824 0.8720 11.86 750.567 5.97654 -0.301862 
0.316 4.66 4.63 0.7822 0.8381 11.87 750.245 0.4436 0.429194 
0.317 7.16 7.14 0.7842 0.7890 11.87 749.924 1.19352 0.929673 
0.318 7.17 7.15 0.7594 0.7997 11.86 749.604 1.94313 0.931481 
0.319 4.68 4.66 0.8030 0.7911 11.85 749.283 2.69241 0.434228 
0.320 1.03 1.01 0.8327 0.8443 11.84 748.962 3.44137 -0.295311 
0.321 -1.82 -1.84 0.7726 0.7800 11.87 748.642 4.19002 -0.866638 
0.322 -2.35 -2.40 0.8240 0.7865 11.87 748.322 4.93834 -0.974582 
0.323 -0.29 -0.33 0.8423 0.8428 11.87 748.001 5.68634 -0.562037 
0.324 3.27 3.23 0.7950 0.7655 11.88 747.681 0.150835 0.150263 
0.325 6.43 6.39 0.7914 0.7526 11.88 747.361 0.898196 0.782204 
0.326 7.50 7.47 0.7533 0.7590 11.87 747.042 1.64524 0.997231 
0.327 5.92 5.90 0.7916 0.7801 11.84 746.722 2.39196 0.68137 
0.329 -0.86 -0.91 0.7939 0.8260 11.85 746.083 3.88445 -0.676392 
0.330 -2.46 -2.51 0.8442 0.7274 11.86 745.764 4.63021 -0.996625 
0.331 -1.42 -1.46 0.7919 0.8704 11.87 745.445 5.37565 -0.787986 
0.332 1.72 1.67 0.8388 0.6981 11.86 745.126 6.12078 -0.161691 
0.333 5.27 5.22 0.7973 0.8407 11.87 744.807 0.582403 0.550032 
0.334 7.38 7.33 0.7547 0.6748 11.87 744.489 1.32689 0.970402 
0.335 6.91 6.86 0.7675 0.7927 11.84 744.17 2.07106 0.877455 
0.336 4.13 4.08 0.7751 0.7165 11.82 743.852 2.81491 0.3209 
0.337 0.50 0.45 0.8262 0.8164 11.83 743.533 3.55845 -0.404886 
0.338 -2.06 -2.11 0.8385 0.9072 11.85 743.215 4.30166 -0.916831 
0.339 -2.20 -2.25 0.7998 0.8764 11.86 742.897 5.04456 -0.945337 
0.340 0.14 0.10 0.8322 0.7143 11.86 742.579 5.78714 -0.475953 
0.341 3.76 3.68 0.7570 1.0004 11.87 742.262 0.246215 0.243734 
0.342 6.71 6.64 0.7593 0.6759 11.88 741.944 0.988159 0.835014 
0.343 7.47 7.40 0.7703 0.8214 11.86 741.627 1.72979 0.987388 
0.344 5.64 5.57 0.7617 0.6840 11.84 741.309 2.47109 0.621376 
0.345 2.20 2.10 0.7360 0.9701 11.83 740.992 3.21209 -0.0704357 
0.346 -1.07 -1.18 0.8044 0.7682 11.85 740.675 3.95276 -0.725093 
0.348 -1.20 -1.31 0.8466 0.8023 11.84 740.041 5.43316 -0.751296 
0.349 2.00 1.90 0.8113 0.7959 11.85 739.725 6.17289 -0.110076 
0.350 5.49 5.39 0.7703 0.7589 11.88 739.408 0.629109 0.588425 
0.351 7.45 7.34 0.7729 0.7476 11.88 739.092 1.3682 0.979548 
0.352 6.85 6.75 0.7516 0.8069 11.84 738.776 2.10698 0.859666 
0.353 4.01 3.91 0.7583 0.7855 11.81 738.46 2.84544 0.291846 
0.354 0.41 0.31 0.8182 0.7040 11.82 738.144 3.58358 -0.427737 
0.355 -2.07 -2.18 0.7976 0.8622 11.85 737.828 4.32141 -0.924536 
0.356 -2.15 -2.26 0.8662 0.7262 11.85 737.512 5.05892 -0.940557 
0.357 0.23 0.09 0.7850 0.8753 11.85 737.197 5.79612 -0.468038 
0.358 3.80 3.67 0.7922 0.8014 11.87 736.881 0.249812 0.247222 
0.359 6.74 6.60 0.7761 0.8129 11.88 736.566 0.986378 0.834033 
0.360 7.50 7.39 0.7511 0.6933 11.86 736.251 1.72263 0.988496 
0.361 5.71 5.60 0.7933 0.8032 11.83 735.936 2.45856 0.631145 
0.362 2.31 2.17 0.7986 0.8476 11.82 735.621 3.19419 -0.0525688 
0.363 -0.97 -1.11 0.7951 0.8563 11.84 735.306 3.92949 -0.708873 
0.365 -1.30 -1.44 0.7946 0.8787 11.86 734.677 5.39916 -0.773297 
0.366 1.82 1.69 0.8488 0.7657 11.86 734.363 6.13352 -0.149104 
0.367 5.33 5.19 0.7943 0.8264 11.87 734.049 0.584387 0.551688 
0.368 7.41 7.27 0.7551 0.7740 11.87 733.734 1.31812 0.968247 
0.369 7.00 6.86 0.7789 0.7991 11.85 733.421 2.05154 0.886651 
0.370 4.32 4.18 0.7865 0.7990 11.82 733.107 2.78465 0.349413 
0.371 0.73 0.59 0.8308 0.8339 11.83 732.793 3.51744 -0.367062 
0.372 -1.90 -2.04 0.8441 0.8137 11.86 732.48 4.24992 -0.894954 
0.373 -2.25 -2.39 0.8486 0.8461 11.86 732.166 4.98209 -0.963851 
0.374 -0.12 -0.27 0.8384 0.8337 11.86 731.853 5.71394 -0.538996 
0.375 3.38 3.24 0.8056 0.8182 11.87 731.54 0.162295 0.161583 
0.376 6.47 6.33 0.7711 0.7879 11.88 731.227 0.893521 0.779283 
0.377 7.56 7.42 0.7842 0.7851 11.87 730.914 1.62444 0.998562 
0.379 2.85 2.71 0.7632 0.8306 11.82 730.289 3.08533 0.0562377 
0.380 -0.55 -0.69 0.8441 0.7549 11.85 729.976 3.8153 -0.623889 
0.381 -2.36 -2.50 0.7959 0.8731 11.86 729.664 4.54497 -0.986017 
0.382 -1.66 -1.80 0.8770 0.7893 11.86 729.352 5.27432 -0.846229 
0.383 1.19 1.05 0.7718 0.8419 11.86 729.04 6.00336 -0.276191 
0.384 4.74 4.60 0.7970 0.7874 11.87 728.728 0.448899 0.433974 
0.385 7.18 7.06 0.8198 0.7858 11.88 728.416 1.17731 0.92358 
0.386 7.29 7.15 0.7614 0.7614 11.86 728.104 1.90542 0.944534 
0.387 5.01 4.86 0.7991 0.7905 11.83 727.793 2.63321 0.486763 
0.388 1.49 1.34 0.8164 0.7327 11.83 727.481 3.36069 -0.217352 
0.389 -1.50 -1.62 0.8929 0.8518 11.85 727.17 4.08786 -0.811241 
0.390 -2.40 -2.55 0.7714 0.7834 11.87 726.859 4.81472 -0.994769 
0.391 -0.82 -0.94 0.8707 0.8621 11.86 726.548 5.54127 -0.675701 
0.393 5.82 5.70 0.7983 0.7860 11.88 725.926 0.710249 0.652022 
0.394 7.51 7.39 0.7638 0.7499 11.87 725.616 1.43586 0.99091 
0.395 6.73 6.58 0.7826 0.7760 11.85 725.305 2.16117 0.830733 
0.396 3.84 3.69 0.7812 0.7914 11.83 724.995 2.88616 0.25266 
0.397 0.31 0.16 0.7956 0.8094 11.84 724.685 3.61085 -0.452223 
0.398 -2.09 -2.21 0.8220 0.8226 11.86 724.375 4.33522 -0.929713 
0.399 -2.14 -2.26 0.8824 0.8420 11.86 724.065 5.05929 -0.940431 
0.400 0.16 0.04 0.7758 0.8370 11.86 723.755 5.78304 -0.47955 
0.401 3.67 3.54 0.8481 0.7992 11.87 723.445 0.223304 0.221453 
0.402 6.61 6.51 0.6870 0.6444 11.88 723.136 0.94644 0.811339 
0.403 7.54 7.41 0.8339 0.7805 11.86 722.826 1.66927 0.995156 
0.404 5.94 5.87 0.9064 0.6414 11.83 722.517 2.39178 0.681499 
0.406 -0.66 -0.73 0.7160 0.7196 11.84 721.899 3.83589 -0.639846 
0.407 -2.40 -2.48 0.8329 0.8260 11.86 721.59 4.55748 -0.988026 
0.408 -1.68 -1.75 0.8888 0.7409 11.86 721.281 5.27876 -0.843853 
0.409 1.15 1.05 0.8772 0.8142 11.86 720.973 5.99973 -0.27967 
0.410 4.67 4.57 0.7020 0.7716 11.87 720.664 0.437214 0.423417 
0.411 7.12 7.04 0.8007 0.7560 11.87 720.356 1.15757 0.91583 
0.412 7.30 7.23 0.6644 0.6371 11.85 720.048 1.87762 0.953298 
0.413 5.12 5.05 0.8668 0.8403 11.83 719.74 2.59736 0.517764 
0.414 1.67 1.59 0.7031 0.6997 11.82 719.432 3.31679 -0.174302 
0.415 -1.36 -1.44 0.8635 0.8444 11.85 719.124 4.03591 -0.779784 
0.416 -2.46 -2.53 0.7321 0.7303 11.86 718.816 4.75473 -0.999104 
0.418 2.08 2.00 0.8304 0.7303 11.86 718.201 6.19144 -0.0916175 
0.419 5.47 5.39 0.7989 0.8008 11.87 717.894 0.626148 0.586028 
0.420 7.41 7.33 0.7336 0.7158 11.87 717.587 1.34373 0.974332 
0.421 6.95 6.87 0.7866 0.7322 11.85 717.28 2.06101 0.88223 
0.422 4.32 4.24 0.7633 0.7520 11.82 716.973 2.77799 0.355646 
0.423 0.81 0.73 0.8389 0.7850 11.83 716.666 3.49465 -0.345772 
0.424 -1.85 -1.92 0.7863 0.8433 11.86 716.36 4.21101 -0.876922 
0.425 -2.35 -2.42 0.8851 0.8318 11.86 716.053 4.92707 -0.977045 
0.426 -0.45 -0.52 0.7420 0.6918 11.85 715.747 5.64281 -0.597494 
0.427 2.91 2.84 0.8584 0.8209 11.86 715.44 0.0750682 0.0749977 
0.428 6.09 6.01 0.6871 0.6522 11.88 715.134 0.790203 0.710496 
0.430 6.52 6.45 0.6557 0.6651 11.84 714.523 2.21955 0.796835 
0.431 3.57 3.49 0.8093 0.8005 11.82 714.217 2.93377 0.20633 
0.432 0.11 0.04 0.8492 0.7282 11.84 713.911 3.64768 -0.48476 
0.433 -2.16 -2.23 0.8813 0.8228 11.86 713.606 4.36129 -0.938994 
0.434 -2.14 -2.21 0.7591 0.8972 11.86 713.3 5.07459 -0.93512 
0.435 0.15 0.10 0.8328 0.8500 11.86 712.995 5.78758 -0.475561 
0.436 3.61 3.54 0.7082 0.6760 11.87 712.69 0.217088 0.215387 
0.437 6.54 6.47 0.7913 0.8519 11.88 712.385 0.929474 0.801305 
0.438 7.53 7.45 0.6581 0.6556 11.87 712.081 1.64155 0.997498 
0.440 2.92 2.85 0.6839 0.6936 11.83 711.471 3.0648 0.076716 
0.441 -0.42 -0.50 0.7953 0.8154 11.84 711.167 3.77597 -0.592675 
0.442 -2.33 -2.41 0.8493 0.7703 11.86 710.863 4.48683 -0.974669 
0.443 -1.90 -1.95 0.8550 0.8433 11.86 710.558 5.19739 -0.884675 
0.444 0.69 0.64 0.8366 0.7743 11.85 710.254 5.90764 -0.366777 
0.445 4.17 4.12 0.7791 0.7602 11.87 709.951 0.334408 0.32821 
0.446 6.86 6.78 0.7409 0.7276 11.88 709.647 1.04406 0.86445 
0.447 7.46 7.38 0.8005 0.7308 11.86 709.343 1.7534 0.983375 
0.448 5.68 5.60 0.7236 0.8004 11.83 709.04 2.46244 0.628135 
0.449 2.39 2.31 0.8453 0.7948 11.83 708.736 3.17117 -0.0295776 
0.451 -2.44 -2.49 0.8730 0.8662 11.86 708.13 4.58774 -0.992241 
0.452 -1.65 -1.70 0.8007 0.7153 11.86 707.827 5.29556 -0.834718 
0.453 1.14 1.09 0.8569 0.8672 11.85 707.524 6.00309 -0.276448 
0.454 4.60 4.55 0.7927 0.6845 11.87 707.221 0.427125 0.414256 
0.455 7.05 7.00 0.7589 0.7903 11.87 706.919 1.13404 0.90613 
0.456 7.34 7.29 0.7844 0.6855 11.85 706.616 1.84066 0.963807 
0.457 5.33 5.28 0.7814 0.8016 11.83 706.314 2.54697 0.560193 
0.458 1.97 1.92 0.7791 0.8729 11.83 706.012 3.25299 -0.111163 
0.459 -1.12 -1.17 0.8393 0.8501 11.85 705.71 3.9587 -0.729167 
0.461 -1.43 -1.48 0.8725 0.8841 11.85 705.106 5.36921 -0.791938 
0.462 1.49 1.44 0.7688 0.7035 11.85 704.804 6.07401 -0.20765 
0.463 4.90 4.85 0.7839 0.8195 11.87 704.503 0.495331 0.475323 
0.464 7.18 7.13 0.7792 0.6714 11.88 704.201 1.19953 0.93187 
0.465 7.25 7.20 0.7617 0.7950 11.85 703.9 1.90343 0.945185 
0.466 5.07 5.02 0.7967 0.7146 11.83 703.599 2.60703 0.509463 
0.467 1.69 1.64 0.8121 0.7978 11.83 703.298 3.31033 -0.167937 
0.468 -1.30 -1.35 0.8251 0.7880 11.85 702.997 4.01333 -0.765446 
0.469 -2.47 -2.52 0.8448 0.8184 11.87 702.696 4.71602 -0.999993 
0.471 1.72 1.67 0.8427 0.7995 11.86 702.095 6.12051 -0.161955 
0.472 5.09 5.04 0.7781 0.8262 11.88 701.795 0.539123 0.513383 
0.473 7.25 7.20 0.7567 0.7533 11.88 701.494 1.24062 0.945984 
0.474 7.18 7.13 0.7780 0.6486 11.85 701.194 1.94181 0.93196 
0.475 4.92 4.87 0.7757 0.8313 11.84 700.894 2.64271 0.478449 
0.476 1.52 1.47 0.7552 0.6887 11.84 700.594 3.3433 -0.200342 
0.477 -1.40 -1.45 0.8551 0.8669 11.86 700.295 4.04359 -0.78457 
0.478 -2.47 -2.52 0.7890 0.7473 11.87 699.995 4.74359 -0.999513 
0.480 1.81 1.79 0.8666 0.7339 11.86 699.396 6.14268 -0.140042 
0.481 5.17 5.12 0.7809 0.8089 11.88 699.097 0.558592 0.529993 
0.482 7.28 7.23 0.7765 0.8264 11.87 698.798 1.25739 0.951289 
0.483 7.16 7.11 0.7565 0.7534 11.85 698.499 1.95589 0.926764 
0.484 4.87 4.82 0.7955 0.6564 11.83 698.2 2.65409 0.468422 
0.485 1.48 1.43 0.8422 0.8790 11.83 697.901 3.35199 -0.208849 
0.486 -1.42 -1.47 0.7819 0.7312 11.85 697.603 4.04959 -0.788275 
0.487 -2.47 -2.52 0.8614 0.8717 11.87 697.304 4.7469 -0.999405 
0.489 1.81 1.76 0.8250 0.8249 11.86 696.708 6.14061 -0.142092 
0.490 5.14 5.12 0.8006 0.7086 11.87 696.409 0.553835 0.525952 
0.491 7.27 7.22 0.7567 0.7860 11.87 696.111 1.24995 0.948968 
0.492 7.18 7.13 0.7786 0.7162 11.85 695.814 1.94576 0.930521 
0.493 4.92 4.87 0.7747 0.7576 11.84 695.516 2.64128 0.479704 
0.494 1.56 1.51 0.7971 0.7857 11.84 695.218 3.33649 -0.19367 
0.495 -1.36 -1.41 0.8356 0.8139 11.86 694.921 4.03141 -0.77696 
0.496 -2.49 -2.51 0.8832 0.8659 11.87 694.624 4.72604 -0.999907 
0.498 1.66 1.66 0.8540 0.9135 11.86 694.029 6.11439 -0.167991 
0.499 5.02 4.99 0.7116 0.8770 11.87 693.732 0.524941 0.501162 
0.500 7.19 7.19 0.8519 0.6503 11.87 693.436 1.21838 0.93854 
0.501 7.22 7.20 0.7558 0.8368 11.85 693.139 1.91152 0.942515 
0.502 5.07 5.05 0.7867 0.6872 11.83 692.842 2.60436 0.511762 
0.503 1.74 1.72 0.7943 0.8278 11.84 692.546 3.2969 -0.154687 
0.504 -1.25 -1.25 0.8728 0.7491 11.86 692.25 3.98915 -0.749668 
0.506 -1.44 -1.46 0.8488 0.8789 11.86 691.657 5.37276 -0.789762 
0.507 1.42 1.40 0.7064 0.8482 11.86 691.361 6.06413 -0.217312 
0.508 4.77 4.78 0.8412 0.6774 11.87 691.066 0.472006 0.454673 
0.509 7.11 7.07 0.7062 0.7928 11.87 690.77 1.16278 0.917908 
0.510 7.31 7.29 0.7651 0.6626 11.86 690.474 1.85325 0.960375 
0.511 5.33 5.30 0.7572 0.8277 11.83 690.179 2.54343 0.563126 
0.512 2.05 2.03 0.7316 0.7010 11.83 689.884 3.23331 -0.0915909 
0.514 -2.46 -2.48 0.8488 0.8196 11.86 689.293 4.61219 -0.994985 
0.515 -1.65 -1.67 0.8026 0.8627 11.86 688.998 5.30119 -0.831606 
0.516 1.06 1.04 0.8197 0.7972 11.86 688.704 5.9899 -0.289103 
0.517 4.43 4.41 0.7566 0.8019 11.87 688.409 0.395119 0.384918 
0.518 6.94 6.89 0.7706 0.7336 11.88 688.115 1.08323 0.883477 
0.519 7.41 7.39 0.7392 0.7268 11.86 687.82 1.77105 0.980015 
0.520 5.67 5.64 0.7792 0.8016 11.83 687.526 2.45858 0.631133 
0.521 2.49 2.47 0.7890 0.7890 11.82 687.232 3.14581 -0.00421865 
0.523 -2.38 -2.43 0.8585 0.8783 11.86 686.644 4.51939 -0.981434 
0.524 -1.89 -1.91 0.9012 0.7804 11.86 686.35 5.20574 -0.88075 
0.525 0.62 0.57 0.7063 0.8653 11.86 686.056 5.8918 -0.381471 
0.526 3.97 3.93 0.7935 0.7852 11.87 685.763 0.294376 0.290143 
0.527 6.67 6.63 0.7572 0.7969 11.88 685.469 0.979845 0.830411 
0.528 7.49 7.47 0.7727 0.6852 11.86 685.176 1.66502 0.995564 
0.530 3.06 3.01 0.7533 0.8390 11.83 684.59 3.03449 0.106894 
0.531 -0.20 -0.25 0.8136 0.8489 11.85 684.297 3.71879 -0.545678 
0.532 -2.25 -2.27 0.8990 0.7809 11.86 684.004 4.4028 -0.952457 
0.533 -2.13 -2.18 0.7623 0.8822 11.86 683.711 5.08651 -0.93083 
0.534 0.05 0.03 0.8546 0.7788 11.86 683.419 5.76993 -0.49102 
0.535 3.37 3.32 0.7113 0.8422 11.87 683.127 0.169867 0.169051 
0.536 6.29 6.24 0.7847 0.7758 11.88 682.834 0.852701 0.75306 
0.538 6.51 6.47 0.7811 0.7770 11.85 682.25 2.21749 0.798078 
0.539 3.72 3.67 0.7760 0.8105 11.84 681.958 2.89945 0.239782 
0.540 0.40 0.35 0.7959 0.7996 11.85 681.666 3.58112 -0.42551 
0.541 -1.98 -2.02 0.8252 0.8430 11.86 681.375 4.26249 -0.900492 
0.542 -2.34 -2.39 0.8412 0.8485 11.86 681.083 4.94358 -0.973395 
0.543 -0.54 -0.58 0.8063 0.8538 11.86 680.792 5.62437 -0.612182 
0.544 2.62 2.60 0.8390 0.8380 11.86 680.501 0.0216829 0.0216812 
0.546 7.43 7.39 0.7615 0.7579 11.87 679.918 1.38181 0.982195 
0.547 6.93 6.89 0.7425 0.7885 11.85 679.627 2.06144 0.882031 
0.548 4.47 4.43 0.7927 0.7961 11.83 679.337 2.74077 0.390172 
0.549 1.15 1.10 0.8413 0.8690 11.83 679.046 3.41982 -0.274652 
0.550 -1.56 -1.61 0.7728 0.7935 11.86 678.755 4.09858 -0.817458 
0.551 -2.47 -2.51 0.8354 0.8643 11.86 678.465 4.77704 -0.997911 
0.553 1.76 1.74 0.7164 0.8355 11.86 677.885 6.1331 -0.149522 
0.554 5.03 5.01 0.7935 0.7818 11.87 677.595 0.52751 0.503383 
0.555 7.19 7.14 0.7494 0.7797 11.88 677.305 1.20481 0.933773 
0.556 7.28 7.24 0.7678 0.7673 11.86 677.015 1.88183 0.952018 
0.557 5.28 5.23 0.7695 0.8271 11.83 676.725 2.55855 0.550563 
0.558 2.06 2.01 0.7461 0.7569 11.83 676.436 3.23499 -0.093262 
0.560 -2.44 -2.48 0.7832 0.7913 11.87 675.857 4.58699 -0.992148 
0.561 -1.74 -1.78 0.8305 0.8608 11.86 675.568 5.26256 -0.852434 
0.562 0.83 0.78 0.8405 0.7901 11.86 675.279 5.93784 -0.338522 
0.563 4.14 4.09 0.7847 0.8193 11.87 674.99 0.329644 0.323707 
0.564 6.74 6.70 0.7832 0.7747 11.88 674.701 1.00435 0.843811 
0.565 7.49 7.45 0.7482 0.7815 11.86 674.412 1.67876 0.994178 
0.567 3.10 3.05 0.7894 0.7922 11.83 673.835 3.02672 0.114623 
0.568 -0.13 -0.17 0.7916 0.8309 11.85 673.547 3.70026 -0.53006 
0.569 -2.19 -2.24 0.8474 0.8528 11.86 673.259 4.37352 -0.943132 
0.570 -2.21 -2.23 0.8032 0.7822 11.86 672.971 5.04649 -0.944704 
0.571 -0.15 -0.20 0.7979 0.8691 11.86 672.683 5.71918 -0.534578 
0.572 3.05 3.03 0.8573 0.7463 11.87 672.395 0.108387 0.108175 
0.574 7.49 7.44 0.7565 0.7561 11.87 671.82 1.45231 0.992989 
0.575 6.78 6.73 0.7437 0.7921 11.84 671.532 2.12385 0.850926 
0.576 4.22 4.17 0.7965 0.7981 11.82 671.245 2.79509 0.339609 
0.577 0.93 0.88 0.8028 0.8439 11.83 670.958 3.46605 -0.318794 
0.578 -1.67 -1.72 0.7956 0.8799 11.86 670.671 4.13672 -0.838828 
0.579 -2.45 -2.50 0.8465 0.8782 11.86 670.384 4.8071 -0.995518 
0.581 1.84 1.80 0.7868 0.7307 11.86 669.81 6.14701 -0.135754 
0.582 5.08 5.00 0.7761 0.8310 11.87 669.524 0.53335 0.508421 
0.583 7.19 7.14 0.7382 0.7930 11.88 669.237 1.20259 0.932973 
0.584 7.30 7.25 0.7553 0.7674 11.85 668.951 1.87154 0.955117 
0.585 5.35 5.30 0.7628 0.8041 11.83 668.665 2.5402 0.565789 
0.586 2.17 2.15 0.9260 0.7699 11.83 668.379 3.20858 -0.0669385 
0.588 -2.42 -2.44 0.8286 0.8277 11.87 667.807 4.54448 -0.985937 
0.589 -1.86 -1.91 0.8336 0.8320 11.86 667.521 5.212 -0.877768 
0.590 0.56 0.51 0.8084 0.7972 11.86 667.235 5.87924 -0.393052 
0.591 3.82 3.78 0.7737 0.8284 11.87 666.95 0.263002 0.259981 
0.592 6.53 6.48 0.7726 0.7510 11.88 666.665 0.929667 0.801421 
0.593 7.51 7.49 0.7409 0.7711 11.87 666.379 1.59605 0.999681 
0.595 3.57 3.55 0.7851 0.8262 11.82 665.809 2.92795 0.212021 
0.596 0.34 0.29 0.7650 0.7520 11.84 665.524 3.59347 -0.436659 
0.597 -1.97 -2.02 0.8608 0.7546 11.86 665.24 4.25871 -0.898843 
0.598 -2.37 -2.41 0.7841 0.8513 11.87 664.955 4.92367 -0.977763 
0.599 -0.68 -0.72 0.8276 0.7498 11.85 664.671 5.58834 -0.640267 
0.601 5.48 5.44 0.7654 0.8393 11.88 664.102 0.633643 0.592084 
0.602 7.34 7.29 0.7634 0.7530 11.86 663.818 1.29746 0.962876 
0.603 7.13 7.11 0.7457 0.6674 11.84 663.534 1.96099 0.924834 
0.604 5.00 4.95 0.7942 0.8615 11.82 663.25 2.62424 0.494577 
0.605 1.80 1.75 0.8425 0.7185 11.83 662.966 3.28721 -0.145103 
0.606 -1.09 -1.14 0.7823 0.8672 11.85 662.682 3.94989 -0.723114 
0.608 -1.71 -1.75 0.7890 0.8479 11.86 662.115 5.27441 -0.846182 
0.609 0.83 0.76 0.8030 0.9819 11.86 661.832 5.93624 -0.340027 
0.610 4.08 4.01 0.7947 0.8093 11.87 661.549 0.314603 0.309439 
0.611 6.68 6.60 0.7486 0.7190 11.88 661.266 0.975869 0.828189 
0.612 7.53 7.45 0.7657 0.7345 11.86 660.983 1.63685 0.997819 
0.614 3.46 3.36 0.7884 0.7830 11.82 660.418 2.95797 0.182593 
0.615 0.26 0.16 0.8295 0.8407 11.84 660.135 3.6181 -0.458683 
0.616 -1.99 -2.08 0.8231 0.8406 11.86 659.853 4.27796 -0.907109 
0.617 -2.32 -2.42 0.8615 0.7226 11.87 659.57 4.93753 -0.974763 
0.618 -0.62 -0.72 0.7966 0.8615 11.86 659.288 5.59682 -0.633733 
0.620 5.50 5.40 0.7914 0.8597 11.87 658.724 0.63136 0.590243 
0.621 7.35 7.25 0.7517 0.6609 11.87 658.442 1.2898 0.96078 
0.622 7.20 7.10 0.7676 0.7810 11.85 658.16 1.94796 0.929712 
0.623 5.10 5.00 0.7722 0.7049 11.83 657.879 2.60584 0.510487 
0.624 1.94 1.84 0.8249 0.8067 11.83 657.597 3.26344 -0.121545 
0.626 -2.40 -2.50 0.8128 0.8753 11.87 657.035 4.57779 -0.990955 
0.627 -1.78 -1.88 0.8533 0.7228 11.86 656.754 5.23454 -0.866747 
0.628 0.64 0.54 0.7828 0.8755 11.86 656.473 5.89102 -0.382194 
0.629 3.86 3.75 0.7742 0.6828 11.87 656.192 0.264023 0.260966 
0.630 6.53 6.43 0.7627 0.8230 11.87 655.911 0.919934 0.795561 
0.631 7.55 7.45 0.7384 0.6663 11.86 655.63 1.57556 0.999989 
0.633 3.82 3.71 0.7905 0.7336 11.82 655.07 2.88598 0.252835 
0.634 0.61 0.50 0.8334 0.8192 11.84 654.789 3.54077 -0.388663 
0.635 -1.79 -1.90 0.8470 0.8014 11.86 654.509 4.19528 -0.869253 
0.636 -2.40 -2.50 0.8509 0.8291 11.87 654.229 4.84951 -0.990613 
0.637 -0.96 -1.07 0.8430 0.8320 11.86 653.949 5.50346 -0.703084 
0.639 5.07 4.96 0.7700 0.8254 11.87 653.39 0.527334 0.503231 
0.640 7.18 7.07 0.7746 0.7516 11.87 653.11 1.18044 0.924775 
0.641 7.38 7.28 0.7511 0.6472 11.85 652.831 1.83327 0.96575 
0.642 5.60 5.50 0.7981 0.8287 11.83 652.551 2.48583 0.609767 
0.644 -0.47 -0.57 0.7810 0.8663 11.85 651.993 3.79009 -0.60399 
0.645 -2.26 -2.37 0.8767 0.7511 11.86 651.714 4.44181 -0.963615 
0.646 -2.09 -2.19 0.7916 0.8537 11.87 651.435 5.09324 -0.928348 
0.647 -0.01 -0.12 0.8346 0.7488 11.86 651.157 5.7444 -0.513096 
0.648 3.10 3.02 0.8513 0.8079 11.86 650.878 0.11209 0.111855 
0.650 7.49 7.38 0.7695 0.7485 11.87 650.321 1.41301 0.987578 
0.651 6.96 6.85 0.7529 0.6426 11.84 650.043 2.06305 0.881269 
0.652 4.63 4.52 0.8012 0.8528 11.82 649.765 2.71282 0.415757 
0.653 1.46 1.35 0.8488 0.7154 11.83 649.487 3.3623 -0.218924 
0.654 -1.27 -1.38 0.7898 0.8599 11.86 649.209 4.01151 -0.764278 
0.656 -1.58 -1.69 0.8333 0.8554 11.86 648.653 5.3091 -0.827189 
0.657 0.95 0.84 0.8365 0.7772 11.86 648.376 5.95747 -0.319983 
0.658 4.14 4.03 0.8006 0.8036 11.87 648.099 0.322387 0.316832 
0.659 6.68 6.57 0.7593 0.7212 11.88 647.821 0.970209 0.825004 
0.660 7.55 7.44 0.7766 0.7288 11.86 647.544 1.61775 0.998898 
0.662 3.71 3.57 0.7904 0.7704 11.82 646.99 2.91201 0.227572 
0.663 0.54 0.41 0.8280 0.8307 11.84 646.713 3.55872 -0.405138 
0.664 -1.81 -1.93 0.8929 0.8349 11.86 646.437 4.20516 -0.874094 
0.665 -2.40 -2.51 0.7675 0.7205 11.88 646.16 4.85132 -0.990365 
0.667 1.86 1.74 0.7186 0.6951 11.86 645.607 6.14281 -0.139915 
0.668 4.99 4.85 0.8589 0.7948 11.87 645.331 0.504955 0.483768 
0.669 7.12 7.01 0.6497 0.6615 11.87 645.055 1.15001 0.912768 
0.670 7.43 7.32 0.7916 0.7942 11.85 644.779 1.79479 0.975018 
0.671 5.79 5.67 0.8130 0.6907 11.83 644.503 2.43929 0.645976 
0.673 -0.21 -0.32 0.7628 0.8944 11.85 643.952 3.72747 -0.552931 
0.674 -2.14 -2.28 0.8735 0.8774 11.87 643.676 4.37115 -0.942339 
0.675 -2.20 -2.34 0.7537 0.7814 11.88 643.401 5.01455 -0.954697 
0.676 -0.36 -0.50 0.9093 0.8666 11.84 643.125 5.65767 -0.585513 
0.677 2.66 2.52 0.6963 0.7921 11.86 642.85 0.0173375 0.0173366 
0.679 7.38 7.26 0.6530 0.6637 11.87 642.3 1.30221 0.964148 
0.680 7.21 7.10 0.7861 0.7879 11.84 642.025 1.94424 0.931077 
0.681 5.19 5.08 0.8002 0.7083 11.82 641.751 2.58599 0.527456 
0.682 2.13 2.01 0.8317 0.8176 11.83 641.476 3.22747 -0.085767 
0.684 -2.33 -2.47 0.8661 0.8521 11.87 640.927 4.50959 -0.979507 
0.685 -1.96 -2.10 0.8435 0.8432 11.86 640.653 5.15025 -0.905662 
0.686 0.19 0.08 0.8536 0.8404 11.84 640.379 5.79063 -0.472882 
0.687 3.29 3.18 0.7866 0.7973 11.86 640.105 0.147546 0.147011 
0.688 6.10 5.98 0.7654 0.7800 11.88 639.831 0.787377 0.708504 
0.690 6.96 6.84 0.8034 0.8044 11.84 639.284 2.06622 0.879768 
0.691 4.67 4.55 0.6884 0.6623 11.82 639.01 2.70523 0.422648 
0.692 1.54 1.45 0.8510 0.8835 11.83 638.737 3.34396 -0.200993 
0.693 -1.18 -1.27 0.7957 0.7419 11.85 638.464 3.98243 -0.7452 
0.695 -1.71 -1.83 0.8940 0.7963 11.85 637.917 5.25854 -0.854532 
0.696 0.67 0.55 0.8602 0.8321 11.84 637.644 5.89618 -0.377417 
0.697 3.80 3.68 0.7643 0.7813 11.86 637.372 0.250366 0.247758 
0.698 6.44 6.32 0.7625 0.7763 11.87 637.099 0.887465 0.775474 
0.700 6.70 6.61 0.7720 0.8314 11.83 636.554 2.16084 0.830914 
0.701 4.23 4.14 0.7492 0.6872 11.82 636.281 2.79713 0.337694 
0.702 1.12 1.00 0.8379 0.8412 11.84 636.009 3.43314 -0.28743 
0.703 -1.45 -1.55 0.7958 0.7274 11.85 635.737 4.06887 -0.799991 
0.705 -1.49 -1.61 0.8753 0.8024 11.86 635.193 5.33953 -0.809708 
0.706 1.04 0.92 0.8524 0.8337 11.84 634.921 5.97445 -0.303852 
0.707 4.16 4.04 0.8071 0.7787 11.87 634.65 0.325917 0.320178 
0.708 6.66 6.54 0.7678 0.7708 11.88 634.378 0.960295 0.819361 
0.709 7.54 7.45 0.7768 0.7113 11.86 634.107 1.5944 0.999721 
0.711 3.93 3.83 0.7697 0.8079 11.81 633.564 2.8618 0.276155 
0.712 0.82 0.72 0.8348 0.8065 11.84 633.293 3.49509 -0.346186 
0.713 -1.64 -1.70 0.9135 0.7159 11.86 633.022 4.12812 -0.834114 
0.714 -2.45 -2.54 0.7581 0.8779 11.87 632.751 4.76087 -0.998825 
0.716 1.27 1.18 0.6876 0.8465 11.85 632.21 6.02556 -0.254786 
0.717 4.36 4.29 0.7716 0.6837 11.86 631.94 0.374314 0.365634 
0.718 6.76 6.69 0.8013 0.7991 11.87 631.669 1.00598 0.844688 
0.719 7.52 7.46 0.7945 0.6741 11.85 631.399 1.63738 0.997784 
0.721 3.75 3.65 0.8117 1.0149 11.81 630.859 2.89937 0.239862 
0.722 0.65 0.56 0.7338 0.8878 11.83 630.589 3.52996 -0.378676 
0.723 -1.71 -1.80 0.9104 0.7182 11.86 630.319 4.16028 -0.851419 
0.724 -2.42 -2.54 0.7410 0.8868 11.87 630.049 4.79033 -0.996964 
0.726 1.40 1.28 0.7082 0.8500 11.86 629.51 6.04962 -0.231451 
0.727 4.49 4.37 0.7828 0.7808 11.87 629.241 0.395672 0.385428 
0.728 6.83 6.71 0.7905 0.7778 11.88 628.972 1.02464 0.854529 
0.729 7.53 7.43 0.7736 0.6842 11.86 628.703 1.65335 0.996595 
0.731 3.69 3.60 0.8016 0.7446 11.82 628.165 2.90995 0.229581 
0.732 0.62 0.52 0.8113 0.8017 11.84 627.896 3.53784 -0.38596 
0.733 -1.71 -1.83 0.8872 0.8279 11.86 627.627 4.16547 -0.85413 
0.734 -2.42 -2.54 0.8418 0.8650 11.86 627.359 4.79283 -0.996767 
0.736 1.39 1.27 0.7279 0.8287 11.86 626.822 6.04674 -0.234249 
0.737 4.45 4.35 0.7926 0.7666 11.87 626.554 0.390108 0.380289 
0.738 6.81 6.69 0.6726 0.7777 11.87 626.286 1.01639 0.850215 
0.739 7.54 7.44 0.8558 0.6374 11.85 626.018 1.64241 0.997437 
0.741 3.77 3.68 0.7758 0.7036 11.82 625.482 2.89364 0.245415 
0.742 0.71 0.61 0.8530 0.8119 11.84 625.215 3.51886 -0.368381 
0.743 -1.68 -1.75 0.8721 0.7558 11.86 624.947 4.14381 -0.842665 
0.744 -2.44 -2.54 0.8251 0.8691 11.87 624.68 4.76849 -0.998427 
0.746 1.23 1.14 0.7807 0.8490 11.86 624.145 6.01704 -0.263011 
0.747 4.29 4.21 0.7790 0.7852 11.88 623.878 0.357737 0.350156 
0.748 6.69 6.62 0.7722 0.7827 11.88 623.611 0.981349 0.831248 
0.749 7.53 7.46 0.7481 0.7574 11.86 623.345 1.60469 0.999426 
0.751 3.97 3.90 0.8032 0.6862 11.81 622.811 2.85058 0.28692 
0.752 0.91 0.84 0.8518 0.8384 11.83 622.545 3.47313 -0.325495 
0.753 -1.54 -1.61 0.8645 0.8164 11.85 622.279 4.09541 -0.815628 
0.754 -2.46 -2.54 0.8658 0.8743 11.86 622.012 4.71742 -0.999987 
0.756 0.95 0.88 0.8184 0.8169 11.86 621.48 5.96064 -0.316978 
0.757 4.01 3.94 0.7825 0.7810 11.87 621.214 0.298673 0.294253 
0.758 6.51 6.44 0.7816 0.7866 11.88 620.948 0.919622 0.795372 
0.760 6.69 6.62 0.7916 0.7769 11.83 620.417 2.16072 0.830982 
0.761 4.29 4.24 0.7973 0.6754 11.82 620.152 2.78087 0.352947 
0.762 1.25 1.18 0.7764 0.8478 11.83 619.886 3.40076 -0.256276 
0.763 -1.31 -1.39 0.8755 0.7838 11.85 619.621 4.02038 -0.769966 
0.765 -1.74 -1.81 0.8550 0.8032 11.85 619.091 5.25883 -0.85438 
0.766 0.55 0.51 0.8832 0.8541 11.85 618.826 5.87765 -0.394507 
0.767 3.58 3.53 0.7148 0.7933 11.87 618.561 0.21303 0.211422 
0.768 6.22 6.17 0.7826 0.7900 11.86 618.297 0.831327 0.738826 
0.770 6.93 6.86 0.7828 0.7804 11.83 617.768 2.06713 0.879336 
0.771 4.74 4.67 0.7895 0.7969 11.81 617.503 2.68463 0.441224 
0.772 1.74 1.67 0.7649 0.8660 11.82 617.239 3.30187 -0.159591 
0.774 -2.40 -2.44 0.8459 0.8828 11.87 616.711 4.53556 -0.984406 
0.775 -2.00 -2.05 0.8667 0.7939 11.86 616.447 5.152 -0.904916 
0.776 0.06 0.01 0.8552 0.8440 11.86 616.184 5.76819 -0.492533 
0.777 3.02 2.98 0.7683 0.7911 11.87 615.92 0.100922 0.100751 
0.779 7.38 7.34 0.7268 0.7541 11.87 615.393 1.33197 0.971617 
0.780 7.17 7.13 0.7975 0.7809 11.84 615.13 1.9471 0.930029 
0.781 5.27 5.20 0.7669 0.7876 11.82 614.867 2.56197 0.54771 
0.782 2.35 2.30 0.8382 0.8059 11.82 614.603 3.17657 -0.0349711 
0.784 -2.24 -2.29 0.9048 0.8598 11.86 614.078 4.40499 -0.953124 
0.785 -2.25 -2.29 0.7483 0.7842 11.86 613.815 5.0188 -0.953421 
0.786 -0.51 -0.55 0.9025 0.8669 11.86 613.552 5.63236 -0.605846 
0.788 5.24 5.20 0.7806 0.7943 11.88 613.027 0.575488 0.544244 
0.789 7.16 7.12 0.7839 0.7459 11.87 612.765 1.18825 0.927718 
0.790 7.39 7.35 0.7833 0.7792 11.84 612.503 1.80076 0.973675 
0.791 5.85 5.81 0.7015 0.7819 11.82 612.241 2.413 0.665822 
0.793 0.14 0.10 0.7301 0.8692 11.84 611.717 3.63669 -0.47512 
0.794 -1.95 -1.99 0.9061 0.8736 11.87 611.455 4.24815 -0.894162 
0.795 -2.42 -2.47 0.7337 0.7896 11.86 611.194 4.85934 -0.989222 
0.797 1.52 1.47 0.6956 0.7641 11.87 610.671 6.08095 -0.200864 
0.798 4.50 4.46 0.7927 0.8205 11.87 610.41 0.408169 0.39693 
0.799 6.78 6.74 0.7769 0.7616 11.87 610.148 1.01832 0.851226 
0.800 7.51 7.47 0.7612 0.7770 11.85 609.887 1.62821 0.998353 
0.802 3.96 3.94 0.9206 0.8069 11.81 609.366 2.8472 0.290162 
0.803 0.96 0.94 0.8019 0.7983 11.83 609.105 3.4563 -0.30954 
0.804 -1.48 -1.50 0.8767 0.8451 11.86 608.844 4.06515 -0.797749 
0.806 -1.70 -1.72 0.8835 0.8627 11.86 608.323 5.28205 -0.842082 
0.807 0.59 0.58 0.7181 0.8534 11.86 608.063 5.89012 -0.383025 
0.808 3.57 3.56 0.8538 0.7968 11.87 607.803 0.214734 0.213087 
0.809 6.17 6.16 0.6595 0.7577 11.88 607.543 0.822277 0.732697 
0.811 6.97 6.96 0.6462 0.7644 11.83 607.023 2.03658 0.893469 
0.812 4.89 4.88 0.8008 0.8334 11.81 606.763 2.64335 0.477886 
0.813 1.97 1.95 0.8474 0.7683 11.83 606.504 3.24985 -0.108046 
0.815 -2.34 -2.35 0.7650 0.8100 11.86 605.985 4.46208 -0.968836 
0.816 -2.18 -2.19 0.8605 0.8710 11.86 605.726 5.0678 -0.937502 
0.817 -0.34 -0.38 0.7210 0.8478 11.86 605.466 5.67327 -0.572797 
0.819 5.33 5.32 0.6464 0.7739 11.88 604.948 0.600241 0.564842 
0.820 7.17 7.16 0.7996 0.7796 11.87 604.69 1.20493 0.933815 
0.821 7.38 7.34 0.6631 0.7535 11.85 604.431 1.80936 0.971678 
0.822 5.84 5.81 0.7703 0.7956 11.81 604.172 2.41353 0.665422 
0.824 0.20 0.19 0.8490 0.8394 11.84 603.655 3.6211 -0.461345 
0.825 -1.91 -1.92 0.8325 0.8183 11.85 603.397 4.2245 -0.883325 
0.826 -2.46 -2.47 0.8594 0.8340 11.86 603.139 4.82764 -0.993366 
0.828 1.28 1.24 0.8349 0.7679 11.86 602.623 6.03314 -0.247444 
0.829 4.23 4.22 0.7137 0.7883 11.87 602.365 0.352323 0.345079 
0.830 6.58 6.58 0.8018 0.7912 11.88 602.107 0.954431 0.815985 
0.832 6.67 6.66 0.7724 0.7954 11.83 601.592 2.15787 0.832564 
0.833 4.38 4.35 0.7695 0.7288 11.82 601.335 2.75921 0.373134 
0.834 1.42 1.41 0.8700 0.8362 11.83 601.078 3.36029 -0.216953 
0.835 -1.14 -1.17 0.7521 0.7796 11.85 600.82 3.96111 -0.730813 
0.837 -1.99 -2.02 0.8889 0.8536 11.86 600.306 5.16198 -0.900627 
0.838 0.03 -0.01 0.8700 0.7351 11.85 600.05 5.76202 -0.497887 
0.839 2.91 2.88 0.6952 0.7916 11.87 599.793 0.0786325 0.0785515 
0.841 7.32 7.25 0.7137 0.7395 11.86 599.28 1.27745 0.957281 
0.842 7.29 7.25 0.7572 0.7685 11.84 599.023 1.87647 0.953644 
0.843 5.61 5.57 0.7581 0.7782 11.81 598.767 2.47524 0.618124 
0.845 0.00 -0.06 0.8290 0.8654 11.84 598.255 3.672 -0.505888 
0.846 -1.99 -2.05 0.7852 0.7451 11.86 597.999 4.27 -0.903733 
0.847 -2.42 -2.46 0.8578 0.8527 11.86 597.743 4.86775 -0.987956 
0.849 1.42 1.39 0.7677 0.8064 11.86 597.232 6.06246 -0.218933 
0.850 4.35 4.32 0.7799 0.7247 11.88 596.976 0.376255 0.36744 
0.851 6.66 6.60 0.7436 0.7195 11.88 596.721 0.972975 0.826564 
0.853 6.66 6.62 0.7461 0.7614 11.82 596.21 2.16565 0.82823 
0.854 4.37 4.34 0.7981 0.7725 11.81 595.955 2.76161 0.370909 
0.855 1.46 1.40 0.8263 0.9360 11.83 595.7 3.35731 -0.214044 
0.856 -1.09 -1.16 0.8007 0.8719 11.85 595.445 3.95275 -0.725085 
0.858 -2.01 -2.07 0.9107 0.7157 11.86 594.936 5.14288 -0.908762 
0.859 -0.06 -0.12 0.6884 0.8680 11.85 594.681 5.73756 -0.518955 
0.860 2.77 2.71 0.7987 0.6831 11.85 594.427 0.0487992 0.0487798 
0.862 7.24 7.21 0.7958 0.7739 11.87 593.918 1.23689 0.944769 
0.863 7.36 7.30 0.7409 0.7571 11.84 593.664 1.83055 0.966452 
0.864 5.82 5.76 0.7865 0.8069 11.81 593.41 2.42396 0.6576 
0.866 0.27 0.21 0.7741 0.7995 11.84 592.902 3.61002 -0.451486 
0.867 -1.82 -1.91 0.8244 0.8983 11.85 592.649 4.20267 -0.872882 
0.868 -2.45 -2.51 0.8920 0.7482 11.86 592.395 4.79507 -0.996584 
0.870 1.03 0.97 0.7994 0.7195 11.85 591.888 5.9791 -0.299424 
0.871 3.95 3.89 0.7948 0.8222 11.87 591.635 0.287546 0.2836 
0.872 6.38 6.32 0.7592 0.6849 11.88 591.382 0.878928 0.770056 
0.874 6.95 6.87 0.7690 0.7255 11.83 590.876 2.06093 0.882268 
0.875 4.90 4.81 0.7797 0.7779 11.81 590.623 2.65156 0.470658 
0.876 2.04 1.96 0.8034 0.8116 11.81 590.37 3.24193 -0.100166 
0.878 -2.26 -2.32 0.8981 0.8876 11.86 589.865 4.42191 -0.958107 
0.879 -2.25 -2.31 0.7532 0.8599 11.85 589.613 5.01152 -0.955592 
0.880 -0.62 -0.68 0.8792 0.7023 11.85 589.361 5.60088 -0.630581 
0.882 4.91 4.85 0.8655 0.6584 11.87 588.857 0.495663 0.475615 
0.883 6.95 6.89 0.6345 0.8303 11.87 588.605 1.08427 0.883961 
0.884 7.52 7.43 0.7545 0.6602 11.85 588.353 1.67262 0.99482 
0.886 3.99 3.90 0.8030 0.7227 11.81 587.849 2.84857 0.288846 
0.887 1.09 1.00 0.8177 0.8261 11.82 587.598 3.43617 -0.290334 
0.888 -1.33 -1.39 0.8673 0.9188 11.85 587.346 4.02352 -0.771962 
0.890 -1.89 -1.95 0.9110 0.7238 11.85 586.844 5.19745 -0.884644 
0.891 0.15 0.06 0.6989 0.8525 11.85 586.593 5.78405 -0.478669 
0.892 2.97 2.90 0.8193 0.6826 11.87 586.342 0.0872037 0.0870932 
0.894 7.28 7.24 0.7590 0.6601 11.86 585.84 1.25914 0.951825 
0.895 7.34 7.28 0.7430 0.7844 11.84 585.59 1.84472 0.962716 
0.896 5.79 5.73 0.7920 0.7130 11.81 585.339 2.43006 0.652992 
0.898 0.30 0.27 0.8117 0.7918 11.84 584.838 3.59999 -0.442512 
0.899 -1.80 -1.84 0.8321 0.8298 11.86 584.588 4.18458 -0.863912 
0.900 -2.48 -2.51 0.8930 0.8452 11.86 584.338 4.76892 -0.998403 
0.902 0.83 0.77 0.8583 0.8405 11.86 583.838 5.93684 -0.33946 
0.903 3.69 3.66 0.6836 0.7749 11.87 583.588 0.237246 0.235026 
0.904 6.17 6.14 0.8179 0.6402 11.87 583.339 0.820584 0.731544 
0.906 7.09 7.06 0.8437 0.6422 11.83 582.839 1.98651 0.914827 
0.907 5.24 5.18 0.7732 0.8594 11.81 582.59 2.5691 0.541727 
0.908 2.48 2.42 0.7435 0.7280 11.81 582.341 3.15144 -0.00985067 
0.910 -2.09 -2.13 0.9012 0.7724 11.86 581.843 4.31538 -0.922221 
0.911 -2.38 -2.44 0.7646 0.8565 11.86 581.594 4.89697 -0.983013 
0.913 1.42 1.36 0.7020 0.8380 11.86 581.096 6.05941 -0.221909 
0.914 4.28 4.22 0.8681 0.6682 11.87 580.848 0.357075 0.349536 
0.915 6.56 6.50 0.6327 0.7695 11.88 580.599 0.937674 0.806184 
0.917 6.85 6.79 0.7257 0.7902 11.82 580.102 2.09813 0.864153 
0.918 4.76 4.71 0.7698 0.6719 11.81 579.854 2.67798 0.447181 
0.919 1.95 1.89 0.7919 0.8314 11.81 579.606 3.25759 -0.115735 
0.921 -2.25 -2.31 0.8465 0.8487 11.86 579.11 4.41606 -0.956414 
0.922 -2.29 -2.32 0.8559 0.8354 11.86 578.862 4.99492 -0.960354 
0.923 -0.73 -0.79 0.7850 0.8386 11.85 578.615 5.57353 -0.651571 
0.925 4.68 4.64 0.7046 0.7530 11.87 578.12 0.446834 0.432112 
0.926 6.79 6.76 0.7595 0.7971 11.87 577.872 1.02471 0.854562 
0.927 7.53 7.47 0.7244 0.7281 11.84 577.625 1.60233 0.999503 
0.929 4.41 4.35 0.7607 0.8300 11.82 577.131 2.75684 0.37533 
0.930 1.57 1.51 0.7471 0.6922 11.83 576.884 3.33372 -0.190951 
0.932 -2.34 -2.40 0.7862 0.7552 11.86 576.39 4.48675 -0.974652 
0.933 -2.18 -2.21 0.8449 0.8570 11.85 576.144 5.06289 -0.939199 
0.934 -0.49 -0.52 0.8783 0.7492 11.85 575.897 5.63879 -0.600713 
0.936 4.96 4.90 0.7747 0.8304 11.87 575.405 0.506662 0.485261 
0.937 6.94 6.88 0.7291 0.7375 11.86 575.158 1.08182 0.882814 
0.938 7.51 7.45 0.7470 0.6267 11.85 574.912 1.65673 0.99631 
0.940 4.16 4.13 0.8408 0.6852 11.81 574.42 2.80582 0.329499 
0.941 1.33 1.30 0.8442 0.8289 11.83 574.175 3.37999 -0.23615 
0.942 -1.11 -1.15 0.7734 0.7292 11.86 573.929 3.95392 -0.725892 
0.944 -2.11 -2.14 0.8514 0.7578 11.85 573.438 5.10105 -0.925419 
0.945 -0.34 -0.38 0.8019 0.8195 11.85 573.193 5.67424 -0.572005 
0.947 5.07 5.04 0.7355 0.7188 11.88 572.702 0.536702 0.511305 
0.948 6.99 6.96 0.7386 0.6975 11.88 572.457 1.10916 0.895325 
0.949 7.49 7.45 0.7179 0.7068 11.85 572.212 1.68137 0.993893 
0.951 4.07 4.04 0.8138 0.7858 11.82 571.723 2.82506 0.311271 
0.952 1.24 1.24 0.9573 0.8129 11.83 571.478 3.39654 -0.252195 
0.953 -1.17 -1.18 0.8921 0.8638 11.85 571.234 3.96777 -0.735349 
0.955 -2.11 -2.11 0.8672 0.8868 11.86 570.745 5.10951 -0.922179 
0.956 -0.35 -0.32 0.9991 0.7101 11.85 570.501 5.68001 -0.567261 
0.958 5.05 5.07 0.7648 0.6780 11.87 570.013 0.537093 0.51164 
0.959 6.96 6.98 0.7203 0.7437 11.87 569.769 1.10686 0.894299 
0.960 7.47 7.47 0.6556 0.8097 11.85 569.525 1.67639 0.994431 
0.962 4.09 4.12 0.6795 0.7882 11.81 569.038 2.81471 0.321096 
0.963 1.29 1.31 0.8506 0.7448 11.83 568.794 3.3835 -0.239555 
0.964 -1.14 -1.11 0.7276 0.7647 11.85 568.551 3.95205 -0.724603 
0.966 -2.15 -2.15 0.7262 0.7426 11.86 568.065 5.08842 -0.930128 
0.967 -0.45 -0.42 0.8068 0.8307 11.85 567.821 5.65625 -0.58667 
0.969 4.93 4.93 0.7643 0.7832 11.87 567.336 0.507974 0.486408 
0.970 6.90 6.90 0.7055 0.7064 11.87 567.093 1.07507 0.879622 
0.971 7.47 7.50 0.7446 0.7506 11.85 566.85 1.64192 0.997472 
0.973 4.28 4.31 0.8165 0.8026 11.82 566.365 2.77489 0.358539 
0.974 1.50 1.52 0.7604 0.8168 11.83 566.123 3.34101 -0.198102 
0.976 -2.37 -2.34 0.7571 0.7742 11.86 565.639 4.47253 -0.971372 
0.977 -2.24 -2.24 0.8943 0.8741 11.86 565.397 5.03793 -0.947478 
0.978 -0.65 -0.64 0.7190 0.7000 11.86 565.155 5.60308 -0.628871 
0.980 4.67 4.67 0.6340 0.6589 11.87 564.671 0.449484 0.4345 
0.981 6.73 6.76 0.7473 0.7435 11.87 564.43 1.01391 0.848907 
0.982 7.48 7.51 0.7575 0.7690 11.85 564.188 1.5781 0.999973 
0.984 4.59 4.63 0.7247 0.8097 11.82 563.706 2.70575 0.422171 
0.985 1.85 1.88 0.8206 0.8507 11.83 563.464 3.26922 -0.127279 
0.987 -2.25 -2.25 0.9055 0.9026 11.86 562.982 4.39542 -0.950186 
0.988 -2.35 -2.35 0.7204 0.7339 11.86 562.741 4.95816 -0.969949 
0.989 -0.96 -0.95 0.8542 0.8581 11.86 562.501 5.52067 -0.690746 
0.991 4.27 4.27 0.7600 0.7973 11.87 562.019 0.361759 0.35392 
0.992 6.49 6.49 0.7505 0.6695 11.87 561.779 0.923538 0.79774 
0.994 6.94 6.95 0.7248 0.7690 11.83 561.298 2.04638 0.889028 
0.995 5.05 5.04 0.7787 1.0452 11.82 561.058 2.60743 0.509118 
0.996 2.38 2.36 0.7960 0.8132 11.82 560.818 3.16825 -0.0266557 
0.998 -2.04 -2.08 0.8544 0.8833 11.86 560.338 4.28917 -0.911771 
0.999 -2.43 -2.48 0.8241 0.8588 11.86 560.099 4.84927 -0.990647 
1.001 0.98 0.93 0.7934 0.8301 11.85 559.619 5.96874 -0.309285 
1.002 3.73 3.69 0.7426 0.6552 11.86 559.38 0.24494 0.242498 
1.003 6.12 6.08 0.7393 0.8234 11.87 559.141 0.80408 0.720193 
1.005 7.21 7.18 0.7420 0.7526 11.84 558.662 1.92164 0.939082 
1.006 5.58 5.56 0.7575 0.8012 11.82 558.423 2.48007 0.614321 
1.008 0.33 0.28 0.8243 0.9096 11.84 557.945 3.5962 -0.439107 
1.009 -1.72 -1.76 0.7992 0.8842 11.86 557.707 4.1539 -0.848059 
1.011 -1.72 -1.77 0.7779 0.8970 11.85 557.23 5.2686 -0.849261 
1.012 0.31 0.27 0.7801 0.7070 11.85 556.991 5.82559 -0.44179 
1.013 3.02 2.97 0.7580 0.8214 11.87 556.753 0.0991599 0.0989975 
1.015 7.22 7.14 0.6120 0.7835 11.87 556.277 1.21195 0.936303 
1.016 7.44 7.37 0.7437 0.6930 11.85 556.039 1.76799 0.98062 
1.018 3.83 3.76 0.8054 0.7717 11.81 555.563 2.87935 0.259244 
1.019 1.09 1.02 0.7879 0.8137 11.83 555.325 3.43468 -0.288908 
1.020 -1.21 -1.29 0.8385 0.8459 11.85 555.088 3.98977 -0.750074 
1.022 -2.09 -2.17 0.8780 0.8892 11.86 554.613 5.09923 -0.926106 
1.023 -0.41 -0.48 0.7636 0.8468 11.86 554.375 5.6536 -0.588806 
1.025 4.84 4.76 0.6603 0.8207 11.87 553.901 0.478459 0.460411 
1.026 6.83 6.75 0.7956 0.6376 11.87 553.664 1.03212 0.85839 
1.027 7.54 7.46 0.6346 0.8201 11.85 553.427 1.58555 0.999891 
1.029 4.71 4.64 0.6719 0.8196 11.81 552.954 2.69169 0.434874 
1.030 2.02 1.95 0.7939 0.7439 11.82 552.717 3.24441 -0.102638 
1.032 -2.14 -2.21 0.8961 0.9300 11.86 552.244 4.34914 -0.934746 
1.033 -2.37 -2.45 0.7525 0.8891 11.86 552.008 4.90114 -0.982239 
1.035 1.18 1.07 0.6868 0.8447 11.86 551.536 6.00445 -0.275138 
1.036 3.88 3.81 0.8434 0.6705 11.87 551.3 0.272566 0.269204 
1.037 6.21 6.13 0.6200 0.8073 11.87 551.064 0.82363 0.733618 
1.039 7.24 7.14 0.7158 0.7876 11.83 550.592 1.92505 0.937905 
1.040 5.64 5.54 0.7646 0.7201 11.81 550.357 2.47541 0.617991 
1.042 0.45 0.35 0.8316 0.7992 11.84 549.886 3.57542 -0.420342 
1.043 -1.61 -1.71 0.8466 0.8359 11.86 549.651 4.12507 -0.832427 
1.045 -1.81 -1.91 0.8053 0.8666 11.86 549.181 5.22366 -0.872122 
1.046 0.11 0.00 0.8301 0.8473 11.85 548.946 5.77261 -0.488681 
1.047 2.75 2.62 0.7700 0.8000 11.86 548.711 0.0381333 0.0381241 
1.049 7.08 6.98 0.7198 0.7970 11.87 548.241 1.13485 0.906471 
1.050 7.52 7.42 0.7454 0.6337 11.85 548.007 1.68286 0.993728 
1.052 4.33 4.22 0.7333 0.7137 11.81 547.538 2.77817 0.355478 
1.053 1.64 1.53 0.8379 0.8204 11.83 547.304 3.32547 -0.182844 
1.055 -2.22 -2.35 0.8504 0.8608 11.86 546.835 4.41938 -0.957378 
1.056 -2.29 -2.39 0.8907 0.9001 11.86 546.601 4.96598 -0.968018 
1.057 -0.92 -1.05 0.7953 0.8710 11.85 546.368 5.51234 -0.696738 
1.059 4.14 4.01 0.7598 0.7922 11.87 545.9 0.321193 0.315699 
1.060 6.38 6.24 0.7516 0.7423 11.87 545.667 0.86686 0.7623 
1.062 7.18 7.08 0.7665 0.6587 11.83 545.2 1.95749 0.92616 
1.063 5.54 5.43 0.7727 0.8066 11.82 544.966 2.50246 0.5965 
1.065 0.39 0.26 0.8214 0.8608 11.84 544.5 3.59169 -0.435055 
1.066 -1.62 -1.76 0.8726 0.8565 11.86 544.267 4.13596 -0.838414 
1.068 -1.79 -1.93 0.8628 0.8557 11.86 543.802 5.2238 -0.872057 
1.069 0.10 -0.03 0.8379 0.8443 11.86 543.569 5.76736 -0.493249 
1.070 2.71 2.57 0.7875 0.7954 11.86 543.336 0.0275161 0.0275126 
1.072 7.05 6.92 0.7564 0.7402 11.87 542.872 1.11349 0.897246 
1.073 7.55 7.41 0.7373 0.7672 11.85 542.639 1.65613 0.996361 
1.075 4.52 4.38 0.7898 0.8550 11.82 542.175 2.74071 0.390229 
1.076 1.85 1.74 0.7738 0.7323 11.83 541.943 3.28266 -0.140596 
1.078 -2.13 -2.27 0.8034 0.8180 11.86 541.479 4.36585 -0.940553 
1.079 -2.35 -2.46 0.8980 0.8746 11.86 541.248 4.90709 -0.981105 
1.081 1.11 0.99 0.7033 0.8401 11.86 540.785 5.9889 -0.29006 
1.082 3.77 3.66 0.7808 0.7729 11.87 540.553 0.246263 0.243782 
1.083 6.11 5.97 0.7346 0.7697 11.88 540.322 0.786585 0.707946 
1.085 7.35 7.21 0.7386 0.7764 11.83 539.86 1.86654 0.956587 
1.086 5.91 5.80 0.7954 0.6677 11.81 539.629 2.40616 0.670905 
1.088 0.89 0.75 0.7750 0.8077 11.84 539.167 3.48473 -0.336443 
1.089 -1.29 -1.43 0.8400 0.8736 11.86 538.936 4.02367 -0.772058 
1.091 -2.06 -2.20 0.8490 0.8621 11.87 538.475 5.10085 -0.925494 
1.092 -0.44 -0.56 0.8418 0.8314 11.86 538.245 5.63909 -0.600473 
1.094 4.66 4.52 0.7761 0.7696 11.87 537.784 0.431706 0.418421 
1.095 6.69 6.55 0.7327 0.7593 11.88 537.554 0.969261 0.824467 
1.097 7.02 6.88 0.7527 0.7823 11.83 537.094 2.04368 0.890259 
1.098 5.22 5.10 0.7473 0.6589 11.81 536.865 2.58054 0.532074 
1.100 0.12 -0.02 0.7960 0.8010 11.85 536.405 3.65358 -0.489914 
1.101 -1.76 -1.91 0.8701 0.8745 11.86 536.176 4.18976 -0.86651 
1.102 -2.44 -2.56 0.8579 0.8140 11.86 535.946 4.72571 -0.999911 
1.104 0.22 0.10 0.8824 0.8509 11.85 535.488 5.79691 -0.467335 
1.105 2.80 2.68 0.6991 0.7983 11.87 535.259 0.0489852 0.0489656 
1.107 7.07 6.92 0.6858 0.7558 11.87 534.801 1.11882 0.899584 
1.108 7.53 7.44 0.8356 0.6361 11.85 534.572 1.65339 0.996591 
1.110 4.60 4.48 0.7437 0.6774 11.81 534.115 2.72185 0.407529 
1.111 2.00 1.86 0.8026 0.8335 11.83 533.886 3.25573 -0.113892 
1.113 -2.06 -2.19 0.8879 0.8774 11.86 533.429 4.32282 -0.925073 
1.114 -2.39 -2.51 0.8994 0.8511 11.86 533.201 4.85602 -0.989703 
1.116 0.79 0.67 0.8486 0.8030 11.86 532.745 5.92174 -0.353627 
1.117 3.41 3.29 0.7482 0.7933 11.87 532.517 0.171071 0.170238 
1.119 7.28 7.16 0.6951 0.7558 11.86 532.062 1.23542 0.944287 
1.120 7.45 7.36 0.8063 0.6287 11.84 531.834 1.76726 0.980764 
1.122 4.08 3.98 0.8580 0.6754 11.82 531.379 2.83024 0.306346 
1.123 1.47 1.35 0.7435 0.9987 11.83 531.152 3.36139 -0.218034 
1.125 -2.22 -2.37 0.7545 0.8786 11.86 530.697 4.42301 -0.958422 
1.126 -2.29 -2.42 0.8695 0.8097 11.85 530.47 4.95348 -0.971077 
1.128 1.23 1.11 0.8474 0.7933 11.86 530.016 6.01374 -0.266194 
1.129 3.85 3.72 0.7898 0.7842 11.87 529.789 0.260347 0.257416 
1.130 6.11 5.99 0.7485 0.6357 11.87 529.563 0.78991 0.71029 
1.132 7.36 7.26 0.7624 0.6465 11.84 529.11 1.84836 0.961727 
1.133 6.04 5.88 0.6814 0.9412 11.81 528.883 2.37724 0.69207 
1.135 1.12 0.99 0.7976 0.8217 11.84 528.431 3.43433 -0.288571 
1.136 -1.09 -1.22 0.8645 0.7818 11.85 528.205 3.96253 -0.731786 
1.138 -2.19 -2.34 0.8918 0.8482 11.86 527.753 5.01826 -0.953584 
1.139 -0.78 -0.94 0.8696 0.8355 11.86 527.527 5.54579 -0.672362 
1.141 4.14 3.98 0.7977 0.7835 11.87 527.076 0.316982 0.311701 
1.142 6.31 6.16 0.7512 0.7522 11.87 526.85 0.843833 0.747196 
1.144 7.30 7.17 0.7611 0.6336 11.83 526.4 1.89686 0.947311 
1.145 5.86 5.73 0.7530 0.8191 11.81 526.174 2.42303 0.658302 
1.147 0.93 0.80 0.8012 0.8656 11.84 525.724 3.4747 -0.326986 
1.148 -1.23 -1.34 0.7646 0.7589 11.85 525.499 4.0002 -0.756936 
1.150 -2.15 -2.28 0.9201 0.8008 11.85 525.05 5.05053 -0.943374 
1.151 -0.69 -0.82 0.9027 0.8346 11.84 524.825 5.57535 -0.650188 
1.153 4.24 4.11 0.8103 0.7686 11.87 524.376 0.341144 0.334566 
1.154 6.36 6.25 0.6556 0.6223 11.87 524.152 0.865296 0.761287 
1.156 7.26 7.16 0.6600 0.6464 11.83 523.703 1.91293 0.942042 
1.157 5.79 5.69 0.8579 0.8157 11.81 523.479 2.43641 0.648176 
1.159 0.88 0.77 0.8315 0.8245 11.84 523.031 3.48269 -0.334523 
1.160 -1.25 -1.35 0.8813 0.7826 11.86 522.807 4.0055 -0.760386 
1.162 -2.16 -2.27 0.8652 0.7965 11.86 522.36 5.05044 -0.943402 
1.163 -0.72 -0.80 0.8439 0.7958 11.85 522.137 5.57258 -0.652292 
1.165 4.19 4.08 0.7835 0.7321 11.87 521.69 0.332998 0.326878 
1.166 6.32 6.22 0.6993 0.7724 11.88 521.467 0.854465 0.75422 
1.168 7.29 7.18 0.6841 0.6362 11.83 521.021 1.89673 0.947352 
1.169 5.87 5.76 0.8639 0.8252 11.81 520.798 2.41753 0.662435 
1.171 0.98 0.90 0.8775 0.8701 11.84 520.352 3.45845 -0.311586 
1.172 -1.17 -1.25 0.8224 0.7586 11.86 520.13 3.97858 -0.742632 
1.174 -2.23 -2.31 0.9174 0.7641 11.86 519.685 5.01818 -0.95361 
1.175 -0.85 -0.93 0.8832 0.8297 11.86 519.462 5.53764 -0.678374 
1.177 3.98 3.90 0.7725 0.7558 11.87 519.018 0.29271 0.288548 
1.178 6.17 6.09 0.7728 0.6225 11.87 518.796 0.811506 0.725325 
1.180 7.35 7.27 0.7828 0.6520 11.83 518.352 1.84843 0.961706 
1.181 6.04 5.96 0.7876 0.8292 11.82 518.13 2.36656 0.699738 
1.183 1.25 1.17 0.8348 0.8316 11.83 517.687 3.40216 -0.257626 
1.185 -2.27 -2.35 0.8829 0.8627 11.87 517.244 4.43687 -0.962283 
1.186 -2.33 -2.38 0.8708 0.7978 11.86 517.023 4.95389 -0.97098 
1.188 1.07 1.01 0.8168 0.7501 11.86 516.58 5.98727 -0.291614 
1.189 3.62 3.57 0.7130 0.7264 11.87 516.359 0.220445 0.218664 
1.191 7.29 7.21 0.7170 0.7114 11.87 515.918 1.2525 0.94977 
1.192 7.43 7.38 0.7539 0.7530 11.84 515.697 1.7682 0.980579 
1.194 4.19 4.17 0.8638 0.8167 11.81 515.256 2.79893 0.335996 
1.195 1.65 1.63 0.8817 0.7498 11.83 515.035 3.31397 -0.17152 
1.197 -2.15 -2.17 0.9157 0.8610 11.86 514.595 4.34337 -0.932683 
1.198 -2.44 -2.46 0.9176 0.7655 11.87 514.374 4.85775 -0.989454 
1.200 0.58 0.55 0.8236 0.8650 11.85 513.934 5.88584 -0.386975 
1.201 3.09 3.07 0.6730 0.7602 11.86 513.714 0.116366 0.116104 
1.203 7.07 7.02 0.7291 0.8002 11.87 513.275 1.14314 0.909938 
1.204 7.49 7.47 0.7567 0.7577 11.84 513.055 1.65619 0.996356 
1.206 4.73 4.71 0.7294 0.8151 11.81 512.616 2.68164 0.443903 
1.207 2.25 2.23 0.8046 0.7600 11.82 512.397 3.19404 -0.0524234 
1.209 -1.88 -1.93 0.8774 0.8691 11.86 511.959 4.21818 -0.880342 
1.210 -2.48 -2.52 0.8895 0.8478 11.86 511.74 4.72992 -0.999846 
1.212 -0.01 -0.05 0.8630 0.7695 11.86 511.302 5.75274 -0.505918 
1.214 4.88 4.83 0.8114 0.7901 11.87 510.864 0.491501 0.47195 
1.215 6.72 6.70 0.6550 0.7464 11.87 510.646 1.00215 0.842629 
1.217 7.02 6.97 0.7417 0.7593 11.83 510.209 2.02278 0.899581 
1.218 5.38 5.33 0.7954 0.8095 11.80 509.991 2.53277 0.571899 
1.220 0.51 0.49 0.8380 0.8750 11.84 509.554 3.5521 -0.399075 
1.221 -1.47 -1.49 0.9094 0.8138 11.86 509.336 4.06144 -0.795507 
1.223 -2.14 -2.19 0.7668 0.8516 11.86 508.901 5.07946 -0.933384 
1.224 -0.68 -0.72 0.8508 0.8930 11.85 508.683 5.58814 -0.640421 
1.226 4.10 4.06 0.8620 0.6424 11.87 508.248 0.321667 0.316148 
1.227 6.21 6.17 0.6321 0.8100 11.87 508.03 0.829697 0.737727 
1.229 7.32 7.30 0.6457 0.7479 11.83 507.596 1.84511 0.962613 
1.231 3.90 3.88 0.8275 0.7431 11.81 507.161 2.85965 0.278227 
1.232 1.39 1.38 0.8608 0.8395 11.83 506.944 3.36659 -0.223103 
1.234 -2.20 -2.25 0.8806 0.8485 11.87 506.511 4.37983 -0.945209 
1.235 -2.40 -2.45 0.8389 0.8415 11.85 506.294 4.88612 -0.984946 
1.237 0.64 0.60 0.7430 0.7717 11.86 505.861 5.89806 -0.375676 
1.238 3.12 3.08 0.8159 0.7975 11.87 505.644 0.120518 0.120227 
1.240 7.03 7.01 0.7789 0.7475 11.87 505.212 1.13116 0.904906 
1.241 7.51 7.47 0.7082 0.7394 11.84 504.996 1.63615 0.997865 
1.243 4.90 4.86 0.7799 0.7944 11.80 504.564 2.6455 0.475996 
1.244 2.48 2.44 0.7546 0.8720 11.83 504.348 3.14984 -0.00825166 
1.246 -1.74 -1.76 0.9145 0.8775 11.86 503.916 4.15789 -0.850165 
1.248 -1.97 -2.02 0.8661 0.9147 11.86 503.485 5.16508 -0.899274 
1.249 -0.36 -0.41 0.7175 0.8456 11.86 503.27 5.66835 -0.576826 
1.251 4.43 4.38 0.6405 0.8286 11.87 502.839 0.391056 0.381165 
1.252 6.40 6.39 0.7878 0.6818 11.87 502.624 0.89368 0.779383 
1.254 7.25 7.21 0.7461 0.7665 11.83 502.194 1.89828 0.946854 
1.255 5.91 5.84 0.7686 1.0424 11.80 501.979 2.40026 0.67527 
1.257 1.25 1.16 0.8313 0.9295 11.83 501.55 3.40358 -0.258996 
1.259 -2.22 -2.31 0.8508 0.8584 11.86 501.121 4.40603 -0.953438 
1.260 -2.36 -2.45 0.8991 0.8496 11.86 500.906 4.90694 -0.981135 
1.262 0.72 0.62 0.8489 0.8450 11.86 500.478 5.90811 -0.366346 
1.263 3.17 3.08 0.6730 0.7506 11.87 500.263 0.125185 0.124858 
1.265 7.06 6.96 0.6619 0.7314 11.86 499.835 1.12507 0.902298 
1.266 7.53 7.46 0.7480 0.7574 11.84 499.622 1.62469 0.998548 
1.268 5.03 4.93 0.7247 0.8371 11.80 499.194 2.62329 0.495404 
1.270 0.23 0.16 0.8982 0.8549 11.85 498.767 3.62104 -0.46129 
1.271 -1.61 -1.68 0.7848 0.8208 11.85 498.554 4.11959 -0.829383 
1.273 -2.05 -2.15 0.7467 0.8810 11.85 498.127 5.11606 -0.919624 
1.274 -0.55 -0.65 0.8935 0.7024 11.85 497.914 5.61398 -0.620366 
1.276 4.15 4.05 0.8109 0.6517 11.88 497.488 0.32598 0.320237 
1.277 6.21 6.12 0.6196 0.7873 11.87 497.275 0.823255 0.733363 
1.279 7.40 7.30 0.7299 0.7451 11.82 496.85 1.81717 0.969804 
1.281 4.17 4.08 0.7922 0.7651 11.81 496.425 2.81023 0.325333 
1.282 1.73 1.63 0.8120 0.8380 11.83 496.212 3.30644 -0.164103 
1.284 -2.03 -2.13 0.9061 0.8586 11.87 495.788 4.29823 -0.915455 
1.285 -2.43 -2.53 0.8022 0.8575 11.86 495.576 4.7938 -0.996688 
1.287 0.16 0.06 0.7102 0.7911 11.85 495.152 5.78432 -0.47843 
1.289 4.91 4.81 0.6488 0.7923 11.86 494.728 0.490802 0.471334 
1.290 6.70 6.63 0.8121 0.6465 11.86 494.516 0.985319 0.833448 
1.292 7.15 7.05 0.7613 0.7693 11.82 494.093 1.97372 0.91992 
1.293 5.67 5.57 0.7666 0.7855 11.81 493.882 2.4676 0.624112 
1.295 1.01 0.91 0.8441 0.7905 11.83 493.459 3.45473 -0.308044 
1.296 -1.06 -1.16 0.8801 0.9310 11.85 493.248 3.94798 -0.721789 
1.298 -2.33 -2.43 0.9257 0.7290 11.85 492.826 4.93384 -0.97558 
1.300 0.77 0.67 0.8325 0.6883 11.85 492.405 5.91886 -0.356319 
1.301 3.19 3.09 0.6509 0.8231 11.86 492.194 0.127869 0.127521 
1.303 7.04 6.92 0.7183 0.7861 11.86 491.773 1.11163 0.89642 
1.304 7.55 7.45 0.7437 0.7602 11.84 491.562 1.60319 0.999475 
1.306 5.19 5.09 0.7965 0.8036 11.80 491.142 2.58568 0.527717 
1.308 0.48 0.38 0.8400 0.8418 11.84 490.722 3.56734 -0.412997 
1.309 -1.40 -1.53 0.8762 0.8570 11.85 490.512 4.05785 -0.793327 
1.311 -2.19 -2.29 0.7509 0.8613 11.85 490.092 5.03824 -0.947378 
1.312 -0.88 -0.98 0.8697 0.6943 11.85 489.882 5.52812 -0.685333 
1.314 3.66 3.56 0.8427 0.6408 11.87 489.463 0.224075 0.222204 
1.316 7.21 7.11 0.7263 0.7197 11.86 489.045 1.20237 0.932896 
1.317 7.51 7.41 0.7186 0.7340 11.83 488.835 1.69121 0.992759 
1.319 4.83 4.73 0.7813 0.7996 11.80 488.417 2.66825 0.455862 
1.320 2.48 2.37 0.7839 0.8461 11.81 488.208 3.15646 -0.0148666 
1.322 -1.62 -1.75 0.8134 0.7415 11.86 487.79 4.13225 -0.836386 
1.324 -2.06 -2.17 0.8810 0.7348 11.85 487.373 5.1072 -0.923068 
1.325 -0.63 -0.73 0.6978 0.8550 11.85 487.165 5.59437 -0.635624 
1.327 3.97 3.84 0.7450 0.7883 11.87 486.748 0.284887 0.281049 
1.329 7.31 7.21 0.7087 0.7260 11.85 486.331 1.25776 0.951402 
1.330 7.48 7.37 0.7464 0.7599 11.83 486.123 1.74388 0.985058 
1.332 4.62 4.51 0.7857 0.7924 11.79 485.707 2.7155 0.413312 
1.333 2.25 2.15 0.8343 0.8191 11.81 485.5 3.201 -0.0593767 
1.335 -1.72 -1.85 0.8809 0.8695 11.86 485.084 4.17138 -0.85719 
1.337 -1.98 -2.11 0.8333 0.8710 11.85 484.669 5.14093 -0.909575 
1.338 -0.50 -0.61 0.8810 0.6927 11.85 484.462 5.62539 -0.611375 
1.340 4.09 3.96 0.7518 0.6445 11.87 484.047 0.310505 0.30554 
1.341 6.12 6.01 0.7167 0.7273 11.86 483.84 0.794345 0.713405 
1.343 7.46 7.36 0.7304 0.7409 11.83 483.426 1.76141 0.981889 
1.345 4.56 4.46 0.8121 0.8255 11.80 483.013 2.72764 0.402233 
1.346 2.21 2.10 0.7814 0.8407 11.82 482.806 3.21044 -0.0687969 
1.348 -1.74 -1.85 0.8193 0.7970 11.86 482.393 4.17544 -0.859272 
1.350 -1.98 -2.12 0.8044 0.7391 11.85 481.98 5.1396 -0.910123 
1.351 -0.51 -0.64 0.8258 0.8238 11.85 481.774 5.62138 -0.614544 
1.353 4.05 3.92 0.7489 0.7663 11.87 481.362 0.301122 0.296592 
1.355 7.32 7.21 0.7219 0.7234 11.86 480.95 1.26323 0.953073 
1.356 7.48 7.37 0.7606 0.7614 11.83 480.744 1.74397 0.985042 
1.358 4.67 4.56 0.7739 0.7894 11.81 480.333 2.70484 0.422995 
1.359 2.34 2.23 0.8391 0.8296 11.83 480.128 3.18497 -0.043366 
1.361 -1.66 -1.77 0.8999 0.8012 11.86 479.717 4.14461 -0.843098 
1.363 -2.05 -2.19 0.7504 0.8891 11.85 479.306 5.10343 -0.924513 
1.364 -0.68 -0.76 0.8068 0.7422 11.84 479.101 5.58253 -0.644718 
1.366 3.80 3.74 0.8014 0.7775 11.87 478.691 0.256933 0.254116 
1.368 7.22 7.14 0.7384 0.7492 11.86 478.282 1.2137 0.936916 
1.369 7.50 7.42 0.7292 0.7408 11.83 478.077 1.69178 0.992691 
1.371 4.91 4.83 0.7993 0.8021 11.80 477.668 2.64732 0.474391 
1.373 0.32 0.24 0.8665 0.7977 11.84 477.26 3.60204 -0.444352 
1.374 -1.49 -1.57 0.8177 0.8939 11.86 477.055 4.0791 -0.806085 
1.376 -2.22 -2.27 0.8746 0.8681 11.85 476.647 5.0326 -0.94917 
1.377 -0.97 -1.02 0.7878 0.7862 11.85 476.443 5.50904 -0.699104 
1.379 3.43 3.35 0.7325 0.7541 11.87 476.036 0.178131 0.177191 
1.381 7.06 6.98 0.7063 0.7119 11.86 475.629 1.12959 0.904238 
1.382 7.52 7.47 0.7438 0.6962 11.84 475.425 1.60502 0.999415 
1.384 5.29 5.24 0.7492 0.7674 11.80 475.018 2.55526 0.553313 
1.386 0.76 0.68 0.7983 0.8732 11.84 474.612 3.50468 -0.355165 
1.387 -1.17 -1.25 0.8952 0.7357 11.85 474.409 3.97909 -0.742972 
1.389 -2.36 -2.41 0.9076 0.8050 11.86 474.003 4.9273 -0.976995 
1.391 0.54 0.49 0.7057 0.7927 11.85 473.597 5.8747 -0.397221 
1.392 2.85 2.80 0.7940 0.7804 11.86 473.395 0.0649082 0.0648626 
1.394 6.78 6.70 0.7347 0.7391 11.86 472.99 1.01109 0.847411 
1.396 7.16 7.11 0.7679 0.8084 11.81 472.585 1.95646 0.926548 
1.397 5.80 5.74 0.7759 0.6804 11.80 472.383 2.42885 0.653915 
1.399 1.38 1.33 0.8259 0.7331 11.83 471.979 3.37301 -0.229353 
1.401 -2.06 -2.17 0.8887 0.8357 11.86 471.575 4.31636 -0.922599 
1.402 -2.44 -2.52 0.8845 0.8826 11.86 471.373 4.78773 -0.997163 
1.404 -0.09 -0.17 0.8422 0.8031 11.85 470.97 5.72987 -0.525509 
1.406 4.43 4.35 0.7970 0.7556 11.87 470.567 0.388022 0.378358 
1.407 6.32 6.24 0.7230 0.7686 11.87 470.366 0.858388 0.75679 
1.409 7.41 7.33 0.7321 0.6281 11.83 469.963 1.79852 0.974184 
1.411 4.50 4.42 0.8411 0.6830 11.81 469.561 2.73784 0.392873 
1.412 2.23 2.12 0.7832 1.0144 11.82 469.36 3.2072 -0.0655594 
1.414 -1.68 -1.76 0.9345 0.8686 11.86 468.959 4.14532 -0.843478 
1.416 -2.11 -2.21 0.8795 0.8605 11.85 468.558 5.08263 -0.932239 
1.417 -0.79 -0.90 0.7278 0.8517 11.85 468.357 5.55099 -0.668504 
1.419 3.55 3.47 0.6459 0.6418 11.87 467.956 0.203918 0.202508 
1.421 7.09 6.99 0.6639 0.6199 11.86 467.556 1.13923 0.908312 
1.422 7.55 7.44 0.7424 0.7719 11.84 467.356 1.60659 0.99936 
1.424 5.39 5.26 0.7989 0.8162 11.79 466.956 2.5407 0.56538 
1.426 0.92 0.81 0.8441 0.8437 11.83 466.557 3.47401 -0.32633 
1.427 -1.03 -1.14 0.8593 0.8426 11.85 466.357 3.94037 -0.716503 
1.429 -2.38 -2.49 0.8534 0.8492 11.85 465.958 4.87248 -0.987212 
1.431 0.26 0.12 0.7074 0.8034 11.85 465.559 5.8038 -0.461232 
1.433 4.73 4.62 0.6439 0.6182 11.87 465.161 0.451139 0.435991 
1.434 6.52 6.41 0.8065 0.7649 11.86 464.962 0.916101 0.793233 
1.436 7.38 7.24 0.7473 0.8115 11.82 464.564 1.84543 0.962525 
1.438 4.37 4.23 0.8171 0.7441 11.81 464.167 2.77396 0.359407 
1.439 2.09 1.95 0.8188 0.7698 11.82 463.968 3.23793 -0.0961873 
1.441 -1.71 -1.82 0.7740 0.9405 11.86 463.571 4.16527 -0.854027 
1.443 -2.09 -2.20 0.7319 0.7254 11.85 463.175 5.09182 -0.928876 
1.444 -0.77 -0.88 0.8670 0.8701 11.85 462.977 5.55479 -0.66567 
1.446 3.53 3.42 0.7697 0.8073 11.87 462.58 0.196968 0.195697 
1.448 7.06 6.95 0.7324 0.7761 11.86 462.185 1.12154 0.900768 
1.449 7.57 7.43 0.7136 0.6685 11.84 461.987 1.58352 0.999919 
1.451 5.52 5.41 0.7778 0.8028 11.80 461.592 2.5069 0.592927 
1.453 1.14 1.02 0.7991 0.8345 11.83 461.197 3.42949 -0.283941 
1.455 -2.12 -2.23 0.7863 0.9019 11.86 460.802 4.3513 -0.935511 
1.456 -2.42 -2.53 0.9249 0.8694 11.86 460.605 4.8119 -0.995053 
1.458 -0.06 -0.17 0.8244 0.8346 11.85 460.211 5.73252 -0.523253 
1.460 4.36 4.25 0.7648 0.8131 11.87 459.817 0.369168 0.360839 
1.461 6.24 6.13 0.7616 0.6259 11.87 459.621 0.828788 0.737113 
1.463 7.46 7.38 0.6711 0.7546 11.83 459.227 1.74744 0.984439 
1.465 4.85 4.74 0.7311 0.8124 11.80 458.835 2.6653 0.458483 
1.467 0.41 0.32 0.7530 0.7812 11.84 458.442 3.58238 -0.426656 
1.468 -1.36 -1.47 0.9137 0.9146 11.86 458.246 4.04063 -0.782729 
1.470 -2.29 -2.41 0.8399 0.8875 11.85 457.854 4.95653 -0.970344 
1.472 0.54 0.46 0.8029 0.8058 11.85 457.462 5.87165 -0.400013 
1.473 2.77 2.69 0.7307 0.6764 11.86 457.266 0.0457351 0.0457191 
1.475 6.64 6.55 0.6831 0.6840 11.86 456.875 0.959681 0.819008 
1.477 7.32 7.23 0.7264 0.7677 11.83 456.484 1.87284 0.954729 
1.479 4.29 4.20 0.8168 0.7958 11.81 456.094 2.78523 0.34887 
1.480 2.03 1.97 0.8948 0.8370 11.82 455.899 3.24113 -0.0993689 
1.482 -1.69 -1.78 0.9473 0.8985 11.86 455.509 4.15234 -0.847228 
1.484 -2.15 -2.24 0.8471 0.8966 11.85 455.119 5.06277 -0.939242 
1.485 -0.92 -1.01 0.8792 0.7084 11.85 454.924 5.51769 -0.692891 
1.487 3.26 3.17 0.6702 0.6701 11.87 454.535 0.143774 0.143279 
1.489 6.87 6.81 0.6228 0.7431 11.86 454.146 1.05226 0.868546 
1.491 7.17 7.08 0.7366 0.7635 11.83 453.758 1.95997 0.925223 
1.492 5.88 5.77 0.7944 0.7896 11.80 453.563 2.41353 0.665423 
1.494 1.66 1.57 0.8312 0.7896 11.83 453.175 3.32008 -0.177539 
1.496 -1.88 -1.96 0.9035 0.8173 11.86 452.788 4.22585 -0.883955 
1.498 -2.01 -2.12 0.8743 0.8459 11.85 452.4 5.13084 -0.913719 
1.499 -0.67 -0.78 0.7810 0.7634 11.85 452.207 5.58305 -0.644324 
1.501 3.55 3.47 0.6925 0.7662 11.87 451.82 0.203695 0.202289 
1.503 7.01 6.93 0.6392 0.7337 11.86 451.433 1.10675 0.894251 
1.505 7.08 6.97 0.7359 0.7802 11.82 451.047 2.00904 0.905498 
1.506 5.68 5.62 0.7942 0.6581 11.81 450.854 2.4599 0.630112 
1.508 1.45 1.37 0.8380 0.7772 11.83 450.468 3.36102 -0.217675 
1.510 -1.96 -2.04 0.9318 0.8229 11.86 450.083 4.26138 -0.900009 
1.512 -1.96 -2.05 0.8692 0.8048 11.85 449.698 5.16097 -0.901062 
1.513 -0.57 -0.66 0.7186 0.8360 11.85 449.506 5.61048 -0.623106 
1.515 3.66 3.58 0.6351 0.7652 11.87 449.121 0.225726 0.223814 
1.517 7.05 6.96 0.6100 0.7340 11.86 448.737 1.12339 0.901573 
1.518 7.54 7.46 0.7254 0.6234 11.84 448.545 1.57194 0.999999 
1.520 5.66 5.57 0.8018 0.6730 11.80 448.161 2.46845 0.623446 
1.522 1.44 1.35 0.8553 0.7684 11.83 447.778 3.3642 -0.22077 
1.524 -1.95 -2.04 0.9169 0.8656 11.86 447.394 4.25918 -0.899046 
1.526 -1.98 -2.06 0.9084 0.8454 11.85 447.012 5.15339 -0.904324 
1.527 -0.61 -0.70 0.7163 0.8197 11.85 446.82 5.60021 -0.631101 
1.529 3.59 3.50 0.6535 0.7540 11.87 446.438 0.210096 0.208553 
1.531 6.99 6.93 0.6098 0.7578 11.86 446.056 1.1024 0.892293 
1.533 7.10 7.01 0.7338 0.8135 11.82 445.675 1.99394 0.911803 
1.534 5.77 5.69 0.7901 0.6936 11.81 445.484 2.43942 0.645876 
1.536 1.59 1.53 0.8667 0.7604 11.83 445.103 3.32982 -0.187117 
1.538 -1.86 -1.95 0.9430 0.9159 11.86 444.722 4.21945 -0.880948 
1.540 -2.07 -2.16 0.8893 0.7845 11.85 444.342 5.10833 -0.922635 
1.541 -0.79 -0.88 0.7037 0.8592 11.85 444.151 5.55248 -0.667396 
1.543 3.32 3.24 0.7658 0.7688 11.87 443.771 0.157026 0.156382 
1.545 6.87 6.78 0.7013 0.7745 11.86 443.392 1.044 0.864422 
1.547 7.22 7.14 0.7362 0.7744 11.82 443.012 1.93021 0.936102 
1.548 6.02 5.93 0.7964 0.7346 11.81 442.823 2.37304 0.695097 
1.550 1.96 1.88 0.8136 0.8281 11.83 442.444 3.25811 -0.116259 
1.552 -1.68 -1.74 0.9314 0.8986 11.86 442.066 4.14244 -0.841926 
1.554 -2.21 -2.30 0.9241 0.7748 11.85 441.687 5.026 -0.951226 
1.556 0.70 0.64 0.7731 0.6683 11.85 441.309 5.90881 -0.365694 
1.557 2.88 2.79 0.7913 0.7588 11.86 441.121 0.0667421 0.0666926 
1.559 6.61 6.52 0.6868 0.7433 11.86 440.743 0.948417 0.812494 
1.561 7.38 7.29 0.7263 0.7773 11.83 440.366 1.82934 0.966764 
1.563 4.64 4.55 0.8024 0.8182 11.82 439.989 2.70951 0.418767 
1.564 2.50 2.42 0.7814 0.7160 11.83 439.801 3.14931 -0.00771404 
1.566 -1.33 -1.42 0.8173 0.7647 11.86 439.425 4.02834 -0.775023 
1.568 -2.38 -2.44 0.8857 0.7563 11.85 439.049 4.90663 -0.981194 
1.570 0.14 0.08 0.8205 0.7208 11.85 438.673 5.78417 -0.478565 
1.572 4.37 4.32 0.7760 0.6893 11.87 438.298 0.377764 0.368843 
1.573 6.18 6.10 0.7083 0.6870 11.87 438.111 0.815874 0.728325 
1.575 7.49 7.43 0.7227 0.7256 11.83 437.736 1.69153 0.99272 
1.577 5.25 5.19 0.7924 0.7951 11.81 437.361 2.56644 0.54396 
1.579 1.07 0.98 0.8780 0.8807 11.84 436.987 3.4406 -0.294576 
1.581 -2.08 -2.14 0.9282 0.9261 11.86 436.613 4.31402 -0.921694 
1.582 -2.47 -2.52 0.9270 0.7604 11.86 436.426 4.75044 -0.999276 
1.584 -0.55 -0.58 0.8840 0.7318 11.85 436.053 5.62274 -0.613472 
1.586 3.56 3.53 0.8216 0.8055 11.87 435.68 0.211097 0.209533 
1.588 6.94 6.88 0.7113 0.6031 11.86 435.307 1.0819 0.882851 
1.590 7.16 7.13 0.7498 0.7688 11.82 434.935 1.95195 0.928235 
1.591 5.94 5.91 0.7762 0.7870 11.81 434.749 2.3867 0.685209 
1.593 1.95 1.92 0.8443 0.7818 11.83 434.377 3.25564 -0.113802 
1.595 -1.63 -1.69 0.8743 0.8822 11.86 434.005 4.12384 -0.831746 
1.597 -2.31 -2.31 0.7983 0.8399 11.85 433.634 4.99129 -0.961358 
1.599 0.45 0.42 0.7030 0.7576 11.86 433.263 5.858 -0.412488 
1.600 2.54 2.54 0.7603 0.7932 11.87 433.078 0.00789421 0.00789413 
1.602 6.33 6.33 0.7254 0.7002 11.87 432.707 0.873493 0.766577 
1.604 7.43 7.43 0.7546 0.7476 11.83 432.337 1.73835 0.985995 
1.606 5.07 5.07 0.8238 0.8421 11.81 431.967 2.60247 0.513383 
1.608 0.91 0.91 0.8295 0.8606 11.84 431.597 3.46585 -0.318605 
1.610 -2.12 -2.15 0.8338 0.9478 11.86 431.228 4.32849 -0.927212 
1.611 -2.48 -2.51 0.8294 0.8934 11.85 431.044 4.75953 -0.998889 
1.613 -0.55 -0.60 0.7058 0.9296 11.85 430.675 5.62107 -0.614787 
1.615 3.51 3.46 0.7333 0.7944 11.87 430.306 0.198681 0.197376 
1.617 6.87 6.85 0.6936 0.7208 11.86 429.938 1.05874 0.871739 
1.619 7.23 7.18 0.7420 0.7565 11.82 429.57 1.91807 0.940306 
1.621 4.29 4.27 0.8960 0.7907 11.81 429.203 2.77666 0.356891 
1.622 2.19 2.17 0.7754 0.8446 11.83 429.019 3.20567 -0.0640381 
1.624 -1.47 -1.49 0.8268 0.9152 11.86 428.652 4.06316 -0.796552 
1.626 -2.38 -2.40 0.7953 0.7321 11.87 428.286 4.91992 -0.978543 
1.628 0.08 0.06 0.7780 0.6828 11.85 427.919 5.77594 -0.485773 
1.630 4.21 4.20 0.7215 0.6420 11.87 427.553 0.348042 0.341058 
1.632 7.17 7.15 0.6183 0.7489 11.85 427.187 1.2026 0.932978 
1.633 7.50 7.48 0.7619 0.7424 11.83 427.004 1.6296 0.998271 
1.635 5.57 5.55 0.8636 0.8283 11.81 426.639 2.48306 0.611953 
1.637 1.56 1.51 0.8764 0.9089 11.84 426.274 3.3358 -0.192985 
1.639 -1.80 -1.85 0.8595 0.9294 11.86 425.909 4.1878 -0.865528 
1.641 -2.23 -2.24 0.8444 0.8758 11.86 425.545 5.03907 -0.947113 
1.643 0.60 0.56 0.7955 0.8043 11.86 425.181 5.88961 -0.38349 
1.644 2.68 2.63 0.7165 0.7163 11.87 424.999 0.0314271 0.0314219 
1.646 6.38 6.33 0.6501 0.6867 11.87 424.635 0.88088 0.771299 
1.648 7.46 7.41 0.7147 0.7569 11.82 424.272 1.72961 0.987416 
1.650 5.18 5.16 0.7837 0.7989 11.81 423.909 2.57761 0.53456 
1.652 1.11 1.09 0.7439 0.7458 11.84 423.547 3.42488 -0.279514 
1.654 -2.01 -2.03 0.9273 0.7845 11.86 423.184 4.27143 -0.904343 
1.656 -2.09 -2.10 0.7616 0.7746 11.85 422.822 5.11726 -0.919155 
1.657 -0.88 -0.89 0.8399 0.8366 11.86 422.641 5.5399 -0.676713 
1.659 3.01 3.00 0.8452 0.7580 11.87 422.28 0.101452 0.101278 
1.661 6.56 6.55 0.7617 0.7901 11.86 421.918 0.945469 0.810772 
1.663 7.40 7.36 0.7365 0.7931 11.82 421.557 1.78876 0.976339 
1.665 4.96 4.92 0.8048 0.8091 11.80 421.197 2.63134 0.488399 
1.667 0.88 0.86 0.8509 0.8734 11.85 420.836 3.47319 -0.325555 
1.669 -2.10 -2.12 0.9140 0.8791 11.86 420.476 4.31432 -0.921813 
1.670 -2.48 -2.52 0.7943 0.8818 11.85 420.297 4.73462 -0.999753 
1.672 -0.73 -0.77 0.7002 0.8538 11.85 419.937 5.57467 -0.650704 
1.674 3.17 3.13 0.6296 0.6404 11.86 419.578 0.130824 0.130451 
1.676 6.64 6.60 0.6899 0.6148 11.86 419.219 0.969441 0.82457 
1.678 7.38 7.34 0.7198 0.6626 11.82 418.86 1.80734 0.972154 
1.680 4.90 4.86 0.7925 0.7340 11.80 418.502 2.64452 0.476852 
1.682 0.87 0.80 0.8605 1.0323 11.85 418.144 3.48099 -0.332918 
1.684 -2.07 -2.16 0.9085 0.8226 11.87 417.786 4.31674 -0.922747 
1.685 -2.46 -2.53 0.9014 0.9190 11.85 417.607 4.73435 -0.999759 
1.687 -0.74 -0.81 0.7933 0.8626 11.85 417.25 5.56903 -0.654982 
1.689 3.14 3.05 0.7461 0.7668 11.86 416.893 0.119805 0.119519 
1.691 6.62 6.53 0.7169 0.7387 11.87 416.536 0.953056 0.815189 
1.693 7.43 7.34 0.7008 0.7155 11.81 416.18 1.78559 0.97702 
1.695 5.05 4.96 0.7368 0.7869 11.81 415.824 2.61742 0.500497 
1.697 1.04 0.94 0.8314 0.8872 11.84 415.468 3.44853 -0.302144 
1.699 -1.99 -2.08 0.8405 0.9270 11.86 415.113 4.27894 -0.907521 
1.701 -2.06 -2.16 0.7961 0.9077 11.87 414.758 5.10863 -0.922519 
1.702 -0.91 -0.98 0.8545 0.7777 11.86 414.58 5.52321 -0.688904 
1.704 2.89 2.79 0.7352 0.7552 11.87 414.225 0.0686518 0.0685979 
1.706 6.45 6.36 0.6914 0.7205 11.86 413.871 0.896571 0.781191 
1.708 7.47 7.41 0.7508 0.6214 11.82 413.517 1.72378 0.988321 
1.710 5.33 5.24 0.8544 0.7012 11.80 413.163 2.55029 0.557447 
1.712 1.40 1.28 0.8313 0.8138 11.84 412.81 3.37608 -0.232346 
1.714 -1.81 -1.91 0.8990 0.8821 11.86 412.457 4.20117 -0.872149 
1.716 -2.21 -2.30 0.8715 0.8559 11.85 412.104 5.02555 -0.951363 
1.718 0.45 0.35 0.7831 0.8010 11.86 411.751 5.84923 -0.42046 
1.720 4.44 4.35 0.7160 0.7407 11.88 411.399 0.389022 0.379283 
1.721 6.13 6.04 0.7163 0.7361 11.87 411.223 0.800244 0.717526 
1.723 7.55 7.43 0.6276 0.7574 11.82 410.871 1.62216 0.998681 
1.725 5.78 5.65 0.6741 0.8498 11.79 410.519 2.44338 0.642852 
1.727 1.94 1.84 0.8849 0.8700 11.83 410.168 3.26389 -0.121992 
1.729 -1.50 -1.59 0.8523 0.9085 11.86 409.817 4.0837 -0.808799 
1.731 -2.35 -2.47 0.8262 0.7331 11.86 409.467 4.90281 -0.981925 
1.733 -0.12 -0.21 0.7532 0.6815 11.85 409.116 5.72122 -0.532853 
1.735 3.81 3.71 0.7387 0.7396 11.87 408.766 0.255738 0.25296 
1.737 6.94 6.84 0.7194 0.7328 11.86 408.417 1.07275 0.878516 
1.739 7.31 7.18 0.7044 0.7714 11.81 408.067 1.88906 0.949781 
1.741 4.68 4.55 0.7845 0.8201 11.79 407.718 2.70467 0.423156 
1.743 0.72 0.59 0.8680 0.9045 11.84 407.369 3.51958 -0.369051 
1.745 -2.08 -2.21 0.8467 0.9025 11.86 407.021 4.3338 -0.929186 
1.746 -2.43 -2.56 0.9015 0.8062 11.87 406.847 4.74064 -0.999601 
1.748 -0.75 -0.91 0.8388 0.8517 11.85 406.499 5.55381 -0.666401 
1.750 2.98 2.85 0.7263 0.7381 11.87 406.151 0.0831038 0.0830082 
1.752 6.46 6.34 0.6931 0.7062 11.86 405.803 0.894884 0.780137 
1.754 7.53 7.38 0.7722 0.7457 11.82 405.456 1.70597 0.990878 
1.756 5.49 5.36 0.8734 0.6690 11.80 405.109 2.51636 0.585284 
1.758 1.66 1.50 0.8854 0.8091 11.83 404.763 3.32606 -0.183424 
1.760 -1.62 -1.75 0.8805 0.8292 11.85 404.416 4.13507 -0.837928 
1.762 -2.30 -2.43 0.8811 0.8250 11.87 404.07 4.94338 -0.97344 
1.764 0.03 -0.10 0.7866 0.7954 11.85 403.725 5.751 -0.507414 
1.766 3.92 3.79 0.7181 0.7172 11.87 403.379 0.27475 0.271306 
1.768 6.99 6.83 0.7319 0.7155 11.86 403.034 1.08099 0.882424 
1.770 7.32 7.19 0.8071 0.6288 11.81 402.689 1.88654 0.950565 
1.772 4.74 4.61 0.8576 0.6868 11.82 402.345 2.6914 0.435135 
1.774 0.83 0.70 0.8563 0.7684 11.85 402.001 3.49558 -0.346639 
1.776 -2.01 -2.15 0.9190 0.8396 11.86 401.657 4.29906 -0.91579 
1.778 -2.06 -2.19 0.8737 0.8858 11.86 401.313 5.10186 -0.925109 
1.779 -0.96 -1.07 0.8811 0.8463 11.83 401.142 5.503 -0.703409 
1.781 2.67 2.54 0.7596 0.7560 11.86 400.798 0.0215866 0.0215849 
1.783 6.22 6.11 0.7176 0.7843 11.86 400.455 0.822669 0.732964 
1.785 7.56 7.42 0.7594 0.7787 11.82 400.113 1.62307 0.998634 
1.787 5.87 5.71 0.7577 0.8034 11.80 399.771 2.42278 0.658493 
1.789 2.19 2.00 0.8287 0.8818 11.82 399.428 3.22181 -0.0801274 
1.791 -1.28 -1.42 1.0324 0.8745 11.86 399.087 4.02015 -0.769819 
1.793 -2.40 -2.54 0.9235 0.8765 11.85 398.745 4.81781 -0.994448 
1.795 -0.53 -0.67 0.8787 0.8225 11.85 398.404 5.61479 -0.619726 
1.797 3.21 3.07 0.7498 0.8087 11.87 398.063 0.127903 0.127555 
1.799 6.56 6.42 0.7234 0.7270 11.86 397.723 0.923519 0.797729 
1.801 7.50 7.39 0.7598 0.7223 11.79 397.383 1.71845 0.989118 
1.803 5.51 5.37 0.6930 0.7961 11.80 397.043 2.51271 0.588242 
1.805 1.76 1.60 0.8196 0.9687 11.82 396.703 3.30628 -0.163949 
1.807 -1.50 -1.67 0.8445 0.9149 11.87 396.363 4.09918 -0.817806 
1.809 -2.35 -2.49 0.8946 0.8686 11.85 396.024 4.8914 -0.98402 
1.811 -0.25 -0.40 0.8243 0.8009 11.84 395.686 5.68294 -0.564844 
1.813 3.52 3.38 0.7762 0.6906 11.87 395.347 0.190619 0.189466 
1.815 6.73 6.58 0.7209 0.6927 11.85 395.009 0.980805 0.830946 
1.817 7.47 7.33 0.7558 0.7332 11.81 394.671 1.77032 0.980162 
1.819 5.32 5.18 0.7590 0.7341 11.80 394.333 2.55915 0.550064 
1.821 1.55 1.41 0.8147 0.7876 11.83 393.996 3.34731 -0.204271 
1.823 -1.63 -1.75 0.9558 0.8311 11.88 393.659 4.1348 -0.83778 
1.825 -2.32 -2.46 0.8908 0.8488 11.85 393.322 4.92161 -0.978193 
1.827 -0.15 -0.29 0.8757 0.7778 11.85 392.986 5.70775 -0.544201 
1.829 3.60 3.48 0.7952 0.7246 11.87 392.649 0.210031 0.20849 
1.831 6.77 6.62 0.7185 0.6899 11.86 392.313 0.994825 0.838664 
1.833 7.45 7.33 0.7605 0.6232 11.82 391.978 1.77895 0.978414 
1.835 5.30 5.18 0.7938 0.7245 11.79 391.642 2.5624 0.547348 
1.837 1.59 1.39 0.8692 0.8528 11.82 391.307 3.34518 -0.202187 
1.839 -1.58 -1.75 0.9579 0.8972 11.85 390.973 4.1273 -0.833661 
1.841 -2.32 -2.49 0.9300 0.8811 11.85 390.638 4.90874 -0.980785 
1.843 -0.22 -0.37 0.7899 0.7757 11.85 390.304 5.68951 -0.559408 
1.845 3.52 3.34 0.7541 0.7032 11.87 389.97 0.186435 0.185357 
1.847 6.69 6.54 0.7566 0.5970 11.86 389.636 0.965875 0.822547 
1.849 7.51 7.33 0.7525 0.6429 11.81 389.303 1.74465 0.984926 
1.851 5.48 5.32 0.7467 0.8571 11.79 388.97 2.52275 0.58009 
1.853 1.79 1.63 0.9139 0.7281 11.82 388.637 3.30019 -0.157938 
1.855 -1.45 -1.60 0.8912 0.7649 11.86 388.305 4.07697 -0.804823 
1.857 -2.39 -2.51 0.8935 0.7515 11.85 387.972 4.85308 -0.990119 
1.859 -0.48 -0.61 0.7997 0.7124 11.85 387.641 5.62853 -0.608888 
1.861 3.16 3.04 0.7280 0.6779 11.86 387.309 0.120125 0.119837 
1.863 6.46 6.33 0.7949 0.7019 11.86 386.978 0.894246 0.779737 
1.865 7.54 7.41 0.8025 0.7332 11.81 386.646 1.6677 0.995308 
1.867 5.80 5.65 0.8503 0.7839 11.79 386.316 2.4405 0.645052 
1.869 2.22 2.07 0.8536 0.8676 11.83 385.985 3.21264 -0.0709848 
1.871 -1.17 -1.29 0.9309 0.9195 11.87 385.655 3.98411 -0.746323 
1.873 -2.42 -2.57 0.9075 0.7681 11.85 385.325 4.75493 -0.999095 
1.875 -0.85 -1.03 0.8110 0.8589 11.84 384.995 5.52508 -0.687545 
1.877 2.63 2.48 0.7435 0.7100 11.87 384.666 0.0113937 0.0113935 
1.880 7.17 7.01 0.7257 0.5907 11.84 384.172 1.1644 0.918553 
1.882 7.25 7.10 0.7208 0.6336 11.80 383.844 1.93226 0.935381 
1.884 4.72 4.56 0.7978 0.7369 11.79 383.515 2.69945 0.427876 
1.886 0.96 0.85 0.8841 0.8611 11.84 383.187 3.46599 -0.318737 
1.888 -1.87 -2.00 0.8936 0.8787 11.86 382.859 4.23187 -0.886756 
1.890 -2.25 -2.35 0.9375 0.8691 11.84 382.532 4.9971 -0.959743 
1.892 0.07 -0.06 0.8951 0.7598 11.85 382.205 5.76167 -0.498192 
1.894 3.75 3.65 0.7657 0.6031 11.87 381.878 0.242407 0.24004 
1.896 6.79 6.66 0.7181 0.5993 11.86 381.551 1.00567 0.844522 
1.898 7.43 7.38 1.0147 0.7342 11.81 381.225 1.76828 0.980563 
1.900 5.39 5.34 0.7625 0.8044 11.79 380.898 2.53024 0.573972 
1.902 1.78 1.73 0.8158 0.8326 11.83 380.573 3.29155 -0.149398 
1.904 -1.41 -1.49 0.9217 0.7707 11.86 380.247 4.05221 -0.789882 
1.906 -2.45 -2.50 0.8977 0.7503 11.85 379.922 4.81221 -0.995022 
1.908 -0.74 -0.79 0.8565 0.7095 11.84 379.597 5.57157 -0.653058 
1.910 2.76 2.71 0.7942 0.6736 11.87 379.272 0.0470902 0.0470728 
1.912 6.13 6.08 0.7149 0.7072 11.86 378.947 0.805147 0.720933 
1.915 7.18 7.14 0.7542 0.7505 11.80 378.461 1.94102 0.932248 
1.917 4.66 4.64 0.8077 0.6879 11.80 378.137 2.69745 0.429681 
1.919 0.99 0.94 0.8972 0.8030 11.84 377.814 3.45324 -0.30663 
1.921 -1.87 -1.89 0.7931 0.8381 11.86 377.491 4.20839 -0.875656 
1.923 -2.32 -2.37 0.7402 0.8470 11.85 377.168 4.96288 -0.96879 
1.925 -0.16 -0.21 0.6836 0.7703 11.85 376.845 5.71673 -0.536641 
1.927 3.44 3.42 0.7411 0.7188 11.87 376.523 0.186755 0.185671 
1.929 6.56 6.51 0.6855 0.6905 11.86 376.201 0.939317 0.807155 
1.931 7.47 7.46 0.7224 0.6248 11.82 375.879 1.69124 0.992756 
1.933 5.73 5.71 0.7940 0.7274 11.79 375.557 2.44251 0.643516 
1.935 2.25 2.23 0.8673 0.8253 11.83 375.236 3.19314 -0.0515267 
1.937 -1.07 -1.11 0.8165 0.8934 11.86 374.915 3.94313 -0.718428 
1.940 -2.18 -2.20 0.8357 0.8739 11.85 374.434 5.06691 -0.937811 
1.942 0.25 0.24 0.8255 0.8154 11.85 374.113 5.8153 -0.450999 
1.944 3.89 3.87 0.7354 0.7292 11.87 373.793 0.279862 0.276223 
1.946 6.79 6.77 0.6968 0.7254 11.85 373.474 1.02697 0.855735 
1.948 7.40 7.39 0.6159 0.7716 11.81 373.154 1.77344 0.979539 
1.950 5.43 5.39 0.6745 0.8066 11.80 372.835 2.51927 0.582927 
1.952 1.89 1.88 0.8798 0.9009 11.83 372.516 3.26446 -0.122555 
1.954 -1.29 -1.33 0.8950 0.9320 11.86 372.197 4.00901 -0.762661 
1.956 -2.49 -2.50 0.9082 0.8950 11.85 371.879 4.75293 -0.999178 
1.959 0.48 0.48 0.6678 0.7776 11.85 371.402 5.86761 -0.403718 
1.961 4.12 4.09 0.6952 0.7067 11.87 371.084 0.326749 0.320966 
1.963 6.89 6.88 0.6853 0.7417 11.85 370.766 1.06844 0.876451 
1.965 7.38 7.34 0.7474 0.6375 11.82 370.449 1.8095 0.971646 
1.967 5.30 5.27 0.8284 0.6970 11.80 370.132 2.54992 0.55775 
1.969 1.76 1.76 0.8763 0.7821 11.83 369.816 3.28971 -0.147576 
1.971 -1.36 -1.39 0.9249 0.8851 11.86 369.499 4.02887 -0.775353 
1.973 -2.48 -2.51 0.8930 0.9170 11.85 369.183 4.76739 -0.998488 
1.975 -0.99 -1.02 0.7838 0.7505 11.84 368.867 5.50528 -0.701787 
1.978 4.11 4.11 0.6968 0.7299 11.87 368.394 0.327753 0.321916 
1.980 6.87 6.87 0.6498 0.7509 11.85 368.079 1.06407 0.874337 
1.982 7.37 7.37 0.6903 0.7682 11.81 367.764 1.79975 0.973904 
1.984 5.37 5.34 0.7851 0.7965 11.80 367.449 2.53481 0.570229 
1.986 1.86 1.86 0.7618 0.8593 11.84 367.135 3.26924 -0.127296 
1.988 -1.28 -1.31 0.7628 0.9218 11.86 366.821 4.00303 -0.758782 
1.990 -2.50 -2.50 0.9064 0.9166 11.85 366.507 4.7362 -0.999716 
1.993 0.33 0.33 0.7455 0.7769 11.85 366.037 5.83478 -0.433525 
1.995 3.91 3.88 0.7909 0.7151 11.87 365.724 0.283203 0.279433 
1.997 6.74 6.75 0.7905 0.7991 11.86 365.411 1.01418 0.849048 
1.999 7.44 7.41 0.7263 0.6282 11.82 365.098 1.74453 0.984946 
2.001 5.61 5.58 0.8023 0.7162 11.80 364.786 2.47426 0.618892 
2.003 2.20 2.18 0.8503 0.7639 11.83 364.474 3.20336 -0.0617322 
2.005 -1.04 -1.06 0.9347 0.8954 11.86 364.162 3.93184 -0.71053 
2.008 -2.25 -2.27 0.7490 0.8811 11.85 363.695 5.02339 -0.952026 
2.010 -0.03 -0.05 0.6708 0.8101 11.85 363.383 5.75032 -0.508007 
2.012 3.47 3.45 0.5857 0.7428 11.87 363.073 0.193431 0.192227 
2.014 6.50 6.45 0.6624 0.7213 11.86 362.762 0.91911 0.795062 
2.016 7.50 7.47 0.7047 0.7951 11.82 362.452 1.64417 0.99731 
2.018 6.01 5.97 0.8003 0.8175 11.80 362.141 2.36861 0.698276 
2.021 0.99 0.94 0.8205 0.9309 11.84 361.677 3.4541 -0.307447 
2.023 -1.78 -1.82 0.8303 0.8377 11.86 361.367 4.17699 -0.860066 
2.025 -2.38 -2.45 0.8783 0.8945 11.85 361.058 4.89926 -0.98259 
2.027 -0.54 -0.61 0.7915 0.8038 11.85 360.749 5.62092 -0.614908 
2.029 2.82 2.77 0.7159 0.7279 11.87 360.441 0.0587661 0.0587322 
2.032 7.08 7.00 0.7571 0.7275 11.84 359.978 1.13916 0.908284 
2.034 7.32 7.27 0.7974 0.7181 11.81 359.67 1.85866 0.958853 
2.036 5.20 5.15 0.8549 0.8049 11.81 359.363 2.57754 0.534618 
2.038 1.77 1.70 0.8529 0.9101 11.84 359.055 3.2958 -0.153598 
2.040 -1.30 -1.35 0.9183 0.9503 11.86 358.748 4.01345 -0.765525 
2.042 -2.48 -2.52 0.8807 0.8627 11.85 358.441 4.73049 -0.999836 
2.045 0.23 0.16 0.7673 0.7628 11.85 357.981 5.80489 -0.460268 
2.047 3.71 3.64 0.6060 0.7200 11.87 357.675 0.237207 0.234988 
2.049 6.61 6.54 0.7090 0.6936 11.86 357.369 0.952097 0.814634 
2.051 7.51 7.44 0.7009 0.6319 11.82 357.063 1.66638 0.995436 
2.053 5.99 5.91 0.7818 0.7313 11.80 356.758 2.38004 0.690043 
2.056 1.02 0.95 0.9306 0.8995 11.85 356.3 3.4494 -0.302972 
2.058 -1.72 -1.80 0.9535 0.9211 11.86 355.995 4.16154 -0.852083 
2.060 -2.40 -2.47 0.8917 0.7386 11.85 355.691 4.87308 -0.987117 
2.062 -0.68 -0.75 0.7778 0.6654 11.85 355.386 5.584 -0.643592 
2.064 2.59 2.52 0.7669 0.7545 11.87 355.082 0.0111334 0.0111331 
2.067 6.93 6.86 0.6684 0.6227 11.86 354.627 1.07547 0.879813 
2.069 7.42 7.35 0.7224 0.7970 11.81 354.323 1.78427 0.977302 
2.071 5.56 5.49 0.8254 0.6867 11.81 354.02 2.49246 0.604497 
2.073 2.26 2.16 0.8486 0.8270 11.83 353.717 3.20004 -0.0584189 
2.076 -1.96 -2.03 0.9122 0.9200 11.86 353.263 4.26029 -0.899532 
2.078 -2.29 -2.39 0.8941 0.7919 11.85 352.961 4.96636 -0.967922 
2.080 -0.32 -0.42 0.8156 0.7303 11.85 352.659 5.67183 -0.573977 
2.082 3.00 2.93 0.7588 0.7336 11.87 352.358 0.0935122 0.093376 
2.084 6.13 6.03 0.6829 0.7002 11.86 352.056 0.797775 0.715804 
2.087 7.35 7.25 0.7498 0.6282 11.81 351.604 1.85304 0.960433 
2.089 5.31 5.21 0.8313 0.7292 11.81 351.304 2.5558 0.552862 
2.091 1.96 1.88 0.8809 0.7894 11.84 351.003 3.25795 -0.116098 
2.093 -1.10 -1.20 0.9308 0.9482 11.86 350.703 3.95951 -0.729723 
2.096 -2.24 -2.32 0.8343 0.8670 11.85 350.253 5.01072 -0.955829 
2.098 -0.17 -0.24 0.7765 0.8113 11.85 349.953 5.71077 -0.541661 
2.100 3.18 3.08 0.7248 0.7311 11.87 349.654 0.127045 0.126703 
2.102 6.21 6.14 0.6880 0.7116 11.86 349.355 0.825904 0.735161 
2.105 7.32 7.22 0.7747 0.7287 11.80 348.906 1.87307 0.954662 
2.107 5.25 5.15 0.8530 0.8280 11.80 348.608 2.57044 0.540606 
2.109 1.93 1.82 0.9350 0.7538 11.84 348.31 3.2672 -0.125281 
2.111 -1.12 -1.20 0.8993 0.7689 11.86 348.012 3.96338 -0.732361 
2.114 -2.23 -2.34 0.8222 0.8728 11.85 347.565 5.00652 -0.957055 
2.116 -0.20 -0.30 0.7977 0.7922 11.85 347.268 5.7012 -0.549681 
2.118 3.11 3.01 0.7089 0.7191 11.87 346.971 0.112107 0.111872 
2.120 6.16 6.05 0.5788 0.7404 11.86 346.674 0.805603 0.721248 
2.123 7.35 7.27 0.7594 0.7509 11.80 346.229 1.84473 0.962713 
2.125 5.38 5.30 0.8056 0.8267 11.80 345.933 2.53675 0.568634 
2.127 2.12 2.02 0.9065 0.8505 11.83 345.637 3.22817 -0.0864699 
2.130 -1.97 -2.04 0.8891 0.8917 11.86 345.193 4.26419 -0.901231 
2.132 -2.30 -2.41 0.8146 0.8743 11.85 344.898 4.95414 -0.970921 
2.134 -0.43 -0.54 0.7853 0.7979 11.85 344.603 5.64349 -0.59695 
2.136 2.78 2.71 0.7263 0.7945 11.87 344.308 0.0490705 0.0490508 
2.139 6.95 6.87 0.7308 0.7071 11.85 343.866 1.08111 0.882481 
2.141 7.44 7.36 0.7354 0.7707 11.81 343.572 1.7684 0.980539 
2.143 5.72 5.62 0.7429 0.8104 11.79 343.278 2.45511 0.633823 
2.146 0.87 0.77 0.9085 0.9316 11.85 342.838 3.48406 -0.335813 
2.148 -1.74 -1.82 0.9019 0.9070 11.86 342.545 4.1693 -0.856115 
2.150 -2.41 -2.49 0.8760 0.8868 11.85 342.252 4.85395 -0.989997 
2.152 -0.85 -0.93 0.7835 0.7682 11.85 341.959 5.53801 -0.678101 
2.155 3.93 3.83 0.7381 0.7331 11.87 341.52 0.279823 0.276186 
2.157 6.64 6.56 0.7619 0.7037 11.85 341.228 0.962425 0.82058 
2.159 7.54 7.43 0.7296 0.7472 11.81 340.936 1.64444 0.997289 
2.162 4.84 4.73 0.8268 0.7867 11.80 340.498 2.66638 0.457532 
2.164 1.52 1.44 0.7853 0.8434 11.84 340.207 3.34694 -0.203903 
2.166 -1.32 -1.42 0.7878 0.9355 11.86 339.916 4.02691 -0.774118 
2.169 -2.18 -2.26 0.8359 0.7277 11.85 339.48 5.04579 -0.944935 
2.171 -0.11 -0.19 0.7491 0.6758 11.86 339.19 5.72431 -0.53023 
2.173 3.15 3.04 0.7113 0.6298 11.87 338.899 0.119073 0.118791 
2.175 6.11 6.03 0.7229 0.7052 11.86 338.609 0.796436 0.714869 
2.178 7.39 7.32 0.7315 0.7109 11.81 338.175 1.8114 0.971195 
2.180 5.58 5.50 0.8384 0.8122 11.80 337.886 2.48731 0.608589 
2.182 2.45 2.34 0.8965 0.8179 11.83 337.597 3.16265 -0.0210552 
2.185 -1.75 -1.83 0.9689 0.8177 11.86 337.163 4.17457 -0.858829 
2.187 -2.41 -2.49 0.8750 0.7788 11.85 336.875 4.84847 -0.990756 
2.189 -0.91 -0.99 0.7777 0.8624 11.85 336.587 5.52178 -0.689936 
2.192 3.76 3.68 0.5938 0.7056 11.87 336.155 0.247496 0.244977 
2.194 6.53 6.42 0.6718 0.6815 11.86 335.867 0.919375 0.795223 
2.196 7.54 7.46 0.7065 0.6185 11.81 335.58 1.59068 0.999802 
2.199 5.13 5.05 0.8212 0.8075 11.79 335.149 2.59656 0.518448 
2.201 1.93 1.82 0.8761 0.8907 11.84 334.863 3.26643 -0.124509 
2.203 -1.02 -1.11 0.9876 0.9229 11.86 334.576 3.93572 -0.713253 
2.206 -2.32 -2.43 0.7195 0.8791 11.86 334.147 4.93859 -0.974525 
2.208 -0.56 -0.70 0.8938 0.8553 11.86 333.861 5.60646 -0.626246 
2.211 4.14 4.04 0.7077 0.7100 11.87 333.433 0.323998 0.318359 
2.213 6.74 6.63 0.6803 0.7067 11.85 333.147 0.990435 0.836265 
2.215 7.55 7.41 0.6170 0.7136 11.81 332.862 1.6563 0.996347 
2.218 4.91 4.77 0.7965 0.7324 11.80 332.435 2.65404 0.468469 
2.220 1.67 1.56 0.9049 0.7740 11.84 332.151 3.31848 -0.175966 
2.222 -1.16 -1.29 0.9225 0.8921 11.87 331.867 3.98236 -0.745152 
2.225 -2.27 -2.38 0.9259 0.8693 11.84 331.441 4.9771 -0.965167 
2.227 -0.45 -0.56 0.8332 0.7914 11.85 331.158 5.63956 -0.600098 
2.229 2.65 2.54 0.7966 0.7222 11.86 330.874 0.0182654 0.0182644 
2.232 6.79 6.68 0.6694 0.5737 11.85 330.45 1.01004 0.846852 
2.234 7.53 7.42 0.7622 0.7436 11.80 330.167 1.67051 0.995032 
2.237 4.87 4.76 0.7240 0.7772 11.80 329.743 2.66017 0.463043 
2.239 1.67 1.56 0.8442 0.9128 11.83 329.461 3.31923 -0.176706 
2.241 -1.14 -1.28 0.8487 0.9554 11.86 329.179 3.97773 -0.74206 
2.244 -2.29 -2.40 0.8355 0.8096 11.85 328.757 4.96442 -0.968407 
2.246 -0.50 -0.64 0.7193 0.7755 11.85 328.476 5.62152 -0.614435 
2.249 4.16 4.02 0.6842 0.6607 11.87 328.054 0.322915 0.317332 
2.251 6.73 6.56 0.6015 0.6508 11.85 327.774 0.978603 0.829718 
2.253 7.57 7.41 0.6284 0.9600 11.81 327.493 1.63373 0.99802 
2.256 5.09 4.93 0.8205 0.8597 11.79 327.073 2.61537 0.502272 
2.258 1.96 1.76 0.9414 0.9514 11.83 326.793 3.2691 -0.127157 
2.261 -1.87 -2.07 0.9046 0.9177 11.86 326.374 4.24864 -0.89438 
2.263 -2.31 -2.51 0.8876 0.8829 11.86 326.095 4.90097 -0.982272 
2.265 -0.72 -0.95 0.8032 0.7922 11.84 325.816 5.55274 -0.667204 
2.268 3.82 3.62 0.6695 0.5961 11.87 325.398 0.246162 0.243684 
2.270 6.51 6.30 0.6828 0.6847 11.86 325.119 0.89654 0.781172 
2.273 7.38 7.17 0.7219 0.6814 11.80 324.702 1.87106 0.955257 
2.275 5.51 5.31 0.8248 0.7827 11.79 324.424 2.52005 0.582289 
2.277 2.47 2.26 0.7835 0.8847 11.83 324.147 3.16848 -0.0268878 
2.280 -1.61 -1.79 0.9148 0.9333 11.86 323.731 4.14009 -0.840659 
2.282 -2.38 -2.59 0.9148 0.7435 11.84 323.454 4.78714 -0.997208 
2.285 0.10 -0.13 0.7737 0.7678 11.85 323.039 5.75667 -0.502523 
2.287 3.20 2.99 0.6963 0.6861 11.86 322.763 0.119149 0.118867 
2.290 7.03 6.82 0.6983 0.7999 11.84 322.349 1.08661 0.885053 
2.292 7.55 7.32 0.7499 0.7655 11.80 322.073 1.73089 0.987212 
2.294 6.08 5.86 0.7868 0.7881 11.79 321.797 2.37462 0.693956 
2.297 1.62 1.41 0.8781 0.8602 11.84 321.384 3.33919 -0.196314 
2.299 -1.13 -1.32 0.9207 0.8875 11.86 321.109 3.98155 -0.744612 
2.302 -2.26 -2.47 0.8163 0.8540 11.84 320.697 4.94405 -0.973286 
2.304 -0.62 -0.81 0.8350 0.7725 11.85 320.423 5.58503 -0.642803 
2.307 3.89 3.70 0.7080 0.5748 11.88 320.012 0.262295 0.259298 
2.309 6.52 6.33 0.5984 0.6721 11.85 319.738 0.901908 0.784512 
2.312 7.37 7.21 0.8186 0.7806 11.78 319.328 1.8603 0.958385 
2.314 5.58 5.42 0.8074 0.6787 11.79 319.055 2.49855 0.599635 
2.317 1.04 0.88 0.9245 0.9197 11.85 318.645 3.45489 -0.308201 
2.319 -1.50 -1.64 0.9409 0.9193 11.86 318.373 4.09178 -0.813522 
2.321 -2.42 -2.58 0.9545 0.8106 11.85 318.1 4.72811 -0.999876 
2.324 -0.26 -0.40 0.6759 0.7610 11.85 317.692 5.6816 -0.565952 
2.326 2.74 2.60 0.5891 0.6925 11.86 317.42 0.0333888 0.0333826 
2.329 6.74 6.59 0.6946 0.7535 11.85 317.013 0.984836 0.833181 
2.331 7.57 7.42 0.6636 0.6984 11.80 316.742 1.61846 0.998865 
2.334 5.30 5.13 0.8831 0.8828 11.79 316.336 2.56787 0.542764 
2.336 2.29 2.12 0.9256 0.8842 11.83 316.065 3.20013 -0.0585077 
2.339 -1.65 -1.79 0.9537 0.9423 11.87 315.659 4.14752 -0.844657 
2.341 -2.40 -2.57 0.9093 0.8840 11.84 315.389 4.77843 -0.99782 
2.344 -0.08 -0.23 0.7159 0.6703 11.84 314.985 5.72379 -0.530673 
2.346 2.92 2.78 0.6138 0.6322 11.87 314.715 0.0701711 0.0701135 
2.349 6.82 6.67 0.6889 0.6605 11.84 314.311 1.01351 0.848693 
2.351 7.56 7.42 0.6154 0.7316 11.80 314.043 1.64173 0.997485 
2.354 5.20 5.10 0.9187 0.8297 11.79 313.64 2.58305 0.52995 
2.356 2.20 2.11 0.9115 0.9134 11.83 313.371 3.20993 -0.0682817 
2.359 -1.68 -1.77 0.9948 0.8863 11.86 312.969 4.14924 -0.845577 
2.361 -2.44 -2.54 0.8674 0.9078 11.85 312.702 4.77477 -0.998055 
2.364 -0.16 -0.25 0.7385 0.7720 11.85 312.3 5.71208 -0.540565 
2.366 2.81 2.72 0.6624 0.7009 11.88 312.033 0.0530907 0.0530658 
2.369 6.72 6.63 0.6874 0.6058 11.84 311.633 0.988389 0.835141 
2.371 7.54 7.45 0.6397 0.7242 11.80 311.366 1.61126 0.999182 
2.374 5.34 5.28 0.8567 0.8091 11.79 310.967 2.54455 0.562195 
2.376 2.41 2.35 0.8856 0.8865 11.83 310.701 3.16609 -0.0244937 
2.379 -1.55 -1.61 0.9490 0.7752 11.86 310.302 4.09739 -0.816776 
2.381 -2.47 -2.53 0.9357 0.7611 11.84 310.037 4.7176 -0.999986 
2.384 -0.44 -0.50 0.6490 0.7939 11.84 309.639 5.64691 -0.594201 
2.387 3.97 3.91 0.6789 0.5902 11.87 309.242 0.29185 0.287725 
2.389 6.48 6.42 0.6705 0.6861 11.85 308.977 0.909936 0.789465 
2.392 7.35 7.30 0.7803 0.6364 11.80 308.581 1.83607 0.96502 
2.394 5.71 5.65 0.8482 0.7473 11.79 308.317 2.45284 0.635575 
2.397 1.36 1.30 0.8491 0.9063 11.84 307.921 3.377 -0.233237 
2.399 -1.23 -1.29 0.8303 0.9298 11.86 307.658 3.99244 -0.751842 
2.402 -2.37 -2.42 0.7348 0.8782 11.84 307.263 4.91463 -0.979619 
2.404 -0.88 -0.96 0.7193 0.8546 11.84 307 5.52876 -0.684871 
2.407 3.35 3.30 0.6626 0.7053 11.87 306.606 0.165785 0.165027 
2.410 6.95 6.89 0.6840 0.7706 11.84 306.213 1.08482 0.884218 
2.412 7.51 7.41 0.7518 0.8205 11.80 305.951 1.69685 0.992066 
2.415 5.07 4.96 0.8257 0.8609 11.80 305.558 2.61392 0.503527 
2.417 2.12 2.04 0.8029 0.8931 11.83 305.297 3.22464 -0.0829518 
2.420 -1.65 -1.75 0.9236 0.9136 11.86 304.905 4.13975 -0.840472 
2.422 -2.44 -2.55 0.8490 0.8801 11.85 304.644 4.74917 -0.999324 
2.425 -0.35 -0.46 0.7773 0.7782 11.85 304.253 5.66232 -0.581742 
2.428 3.99 3.88 0.6882 0.5732 11.87 303.863 0.29111 0.287016 
2.430 6.48 6.34 0.5779 0.5807 11.85 303.603 0.898446 0.78236 
2.433 7.40 7.32 0.7998 0.7387 11.79 303.213 1.80848 0.971887 
2.435 5.86 5.78 0.8022 0.8427 11.79 302.954 2.41451 0.66469 
2.438 1.65 1.55 0.8521 0.8096 11.84 302.565 3.3226 -0.180019 
2.440 -1.00 -1.08 0.8728 0.8766 11.86 302.306 3.92734 -0.707354 
2.443 -2.41 -2.52 0.8653 0.8981 11.84 301.919 4.83348 -0.992677 
2.446 -0.04 -0.14 0.7277 0.7401 11.85 301.531 5.73846 -0.518179 
2.448 2.84 2.74 0.5590 0.7317 11.87 301.273 0.057955 0.0579225 
2.451 6.65 6.54 0.6618 0.6678 11.85 300.887 0.961002 0.819766 
2.454 7.37 7.21 0.7892 0.7994 11.79 300.501 1.86289 0.957643 
2.456 5.70 5.57 0.8500 0.8281 11.80 300.244 2.46351 0.627304 
2.459 1.47 1.33 0.8449 0.9445 11.84 299.858 3.36347 -0.220057 
2.461 -1.08 -1.24 0.9390 0.9700 11.86 299.602 3.9628 -0.731967 
2.464 -2.39 -2.50 1.0664 0.7535 11.84 299.217 4.86083 -0.989002 
2.467 0.04 -0.06 0.7981 0.7703 11.85 298.834 5.75772 -0.501617 
2.469 2.91 2.81 0.6665 0.6571 11.87 298.578 0.0718166 0.0717549 
2.472 6.67 6.56 0.7218 0.6253 11.85 298.195 0.966784 0.823063 
2.475 7.36 7.22 0.7307 0.6425 11.80 297.812 1.8606 0.958299 
2.477 5.73 5.60 0.8176 0.7108 11.80 297.557 2.45585 0.633251 
2.480 1.54 1.41 0.9763 0.9109 11.84 297.176 3.34775 -0.204705 
2.482 -1.02 -1.15 0.9626 0.9369 11.86 296.921 3.94172 -0.717448 
2.485 -2.40 -2.53 0.8771 0.8786 11.85 296.54 4.83173 -0.992888 
2.488 -0.11 -0.22 0.7279 0.7575 11.85 296.16 5.72059 -0.533386 
2.490 2.71 2.58 0.7266 0.6711 11.87 295.907 0.0293419 0.0293377 
2.493 6.52 6.41 0.6456 0.6620 11.85 295.527 0.916302 0.793356 
2.496 7.45 7.29 0.6294 1.0292 11.81 295.148 1.80212 0.973363 
2.498 5.99 5.83 0.6925 0.8270 11.80 294.895 2.39204 0.68131 
2.501 1.90 1.76 0.9242 0.8976 11.84 294.517 3.27597 -0.133974 
2.504 -1.68 -1.82 1.0115 0.8666 11.86 294.139 4.15877 -0.850625 
2.506 -2.43 -2.56 0.8875 0.8273 11.85 293.887 4.74667 -0.999413 
2.509 -0.48 -0.62 0.7865 0.6083 11.85 293.51 5.62757 -0.609644 
2.512 3.67 3.56 0.6747 0.6416 11.87 293.134 0.224167 0.222294 
2.514 6.18 6.07 0.6672 0.5806 11.86 292.883 0.810058 0.724328 
2.517 7.52 7.41 0.8032 0.7280 11.81 292.507 1.68796 0.993145 
2.520 5.28 5.17 0.7331 0.8282 11.80 292.132 2.56473 0.545399 
2.522 2.52 2.41 0.7709 0.8611 11.83 291.882 3.14862 -0.00702336 
2.525 -1.32 -1.40 0.8531 0.9067 11.86 291.508 4.02351 -0.771961 
2.528 -2.37 -2.46 0.9333 0.7172 11.85 291.134 4.89729 -0.982955 
2.531 0.09 0.00 0.6276 0.7253 11.85 290.76 5.76994 -0.491006 
2.533 2.88 2.80 0.6652 0.6458 11.87 290.511 0.0679027 0.0678506 
2.536 6.58 6.49 0.6235 0.8008 11.85 290.139 0.938691 0.806785 
2.539 7.40 7.32 0.7561 0.7515 11.80 289.766 1.80836 0.971914 
2.541 5.96 5.88 0.7827 0.7863 11.80 289.518 2.38752 0.684611 
2.544 1.96 1.90 0.8032 0.8054 11.84 289.147 3.25533 -0.113497 
2.547 -1.63 -1.68 0.9237 0.8925 11.86 288.776 4.12203 -0.830743 
2.550 -2.30 -2.33 0.8441 0.8281 11.85 288.405 4.98762 -0.962362 
2.552 -0.78 -0.81 0.8399 0.8138 11.84 288.159 5.56406 -0.658726 
2.555 3.23 3.21 0.6432 0.6680 11.86 287.789 0.144612 0.144109 
2.558 6.74 6.71 0.6479 0.6741 11.85 287.42 1.00724 0.845361 
2.560 7.51 7.49 0.7027 0.7196 11.81 287.174 1.58171 0.99994 
2.563 5.71 5.72 0.8192 0.7520 11.80 286.805 2.4425 0.643527 
2.566 1.70 1.70 0.9248 0.8791 11.84 286.437 3.30218 -0.159894 
2.569 -1.76 -1.75 0.9472 0.8519 11.86 286.07 4.16075 -0.851668 
2.571 -2.52 -2.48 0.8268 0.7972 11.85 285.825 4.73253 -0.999797 
2.574 -0.72 -0.68 0.6501 0.7451 11.85 285.458 5.58927 -0.639554 
2.577 3.29 3.32 0.6636 0.5650 11.87 285.092 0.161725 0.161021 
2.580 6.73 6.77 0.7566 0.6527 11.85 284.726 1.01627 0.85015 
2.582 7.46 7.53 0.7334 0.6222 11.81 284.483 1.58536 0.999894 
2.585 5.71 5.76 0.7998 0.8258 11.80 284.118 2.43808 0.646903 
2.588 1.74 1.78 0.9178 0.8107 11.84 283.753 3.2897 -0.147567 
2.591 -1.74 -1.67 0.8302 0.8448 11.86 283.389 4.14023 -0.840735 
2.594 -2.33 -2.28 0.7891 0.7753 11.84 283.026 4.98967 -0.961803 
2.596 -0.86 -0.79 0.7066 0.7459 11.84 282.784 5.55536 -0.665247 
2.599 3.07 3.12 0.5929 0.6718 11.87 282.421 0.1198 0.119514 
2.602 6.59 6.64 0.5614 0.6745 11.84 282.058 0.966338 0.82281 
2.605 7.33 7.38 0.7881 0.7536 11.80 281.696 1.81179 0.971102 
2.607 5.94 6.00 0.8046 0.7793 11.79 281.455 2.37482 0.693815 
2.610 2.09 2.14 0.8408 0.8946 11.84 281.094 3.21846 -0.076796 
2.613 -1.50 -1.45 0.8965 0.9356 11.86 280.734 4.06103 -0.795258 
2.616 -2.43 -2.39 0.7657 0.7924 11.85 280.374 4.90251 -0.981982 
2.619 -0.09 -0.05 0.7867 0.7024 11.85 280.014 5.74291 -0.514374 
2.621 2.59 2.60 0.6528 0.6392 11.87 279.774 0.0193903 0.0193891 
2.624 6.28 6.29 0.6660 0.6983 11.87 279.415 0.857995 0.756533 
2.627 7.46 7.47 0.6920 0.6323 11.80 279.057 1.69552 0.992232 
2.630 5.36 5.37 0.7607 0.8476 11.80 278.699 2.53198 0.572552 
2.633 1.37 1.39 0.9031 0.9555 11.84 278.341 3.36736 -0.223853 
2.636 -1.85 -1.87 0.8982 0.7770 11.86 277.984 4.20167 -0.872392 
2.638 -2.50 -2.49 0.8476 0.7480 11.84 277.746 4.75728 -0.998993 
2.641 -0.69 -0.70 0.6351 0.7673 11.85 277.39 5.58981 -0.63914 
2.644 3.19 3.18 0.6325 0.6739 11.87 277.034 0.138077 0.137639 
2.647 6.62 6.61 0.6554 0.7202 11.84 276.679 0.968468 0.824019 
2.650 7.39 7.35 0.7130 0.8230 11.80 276.324 1.79779 0.974346 
2.653 4.97 4.96 0.7839 0.7486 11.80 275.969 2.62606 0.493002 
2.655 2.31 2.33 0.8327 0.7996 11.83 275.733 3.17764 -0.0360393 
2.658 -1.29 -1.30 0.8997 0.9397 11.86 275.379 4.00413 -0.759496 
2.661 -2.46 -2.47 0.8496 0.7932 11.85 275.026 4.82956 -0.993143 
2.664 -0.44 -0.45 0.6576 0.7562 11.85 274.673 5.65393 -0.58854 
2.667 3.47 3.46 0.6311 0.6157 11.87 274.321 0.194062 0.192847 
2.670 6.75 6.75 0.8003 0.6783 11.84 273.969 1.01632 0.850176 
2.673 7.34 7.31 0.7309 0.8008 11.80 273.617 1.83752 0.964639 
2.675 5.95 5.92 0.8194 0.8584 11.80 273.383 2.38441 0.686879 
2.678 2.20 2.17 0.8223 0.8970 11.84 273.032 3.20385 -0.0622207 
2.681 -1.34 -1.37 0.7540 0.9843 11.86 272.682 4.02225 -0.771157 
2.684 -2.43 -2.49 0.8404 0.8762 11.86 272.332 4.8396 -0.99192 
2.687 -0.42 -0.45 0.6694 0.6496 11.85 271.983 5.65589 -0.586954 
2.690 3.46 3.40 0.6574 0.6656 11.86 271.634 0.187958 0.186853 
2.693 6.73 6.70 0.7644 0.6480 11.84 271.285 1.00216 0.842637 
2.696 7.38 7.32 0.7353 0.7966 11.79 270.937 1.81532 0.970252 
2.698 6.06 6.00 0.8179 0.7173 11.79 270.705 2.35685 0.706644 
2.701 2.41 2.32 0.8271 0.9224 11.83 270.358 3.16827 -0.0266741 
2.704 -1.18 -1.24 0.7600 0.8889 11.86 270.011 3.97865 -0.742676 
2.707 -2.44 -2.53 0.8171 0.7134 11.85 269.665 4.78799 -0.997144 
2.710 -0.63 -0.71 0.6839 0.7809 11.86 269.319 5.59629 -0.634137 
2.713 3.14 3.06 0.6368 0.6840 11.87 268.973 0.120373 0.120082 
2.716 6.55 6.44 0.6435 0.6370 11.84 268.628 0.926602 0.799584 
2.719 7.48 7.39 0.7246 0.7594 11.80 268.283 1.7318 0.987067 
2.722 5.39 5.30 0.7866 0.8362 11.79 267.939 2.53596 0.569283 
2.725 1.58 1.46 0.8819 0.9450 11.84 267.596 3.33909 -0.196215 
2.728 -1.66 -1.75 0.9430 0.8651 11.85 267.252 4.14119 -0.841253 
2.731 -2.31 -2.43 0.6871 0.8492 11.85 266.909 4.94226 -0.973696 
2.734 -0.02 -0.13 0.6998 0.6065 11.85 266.567 5.7423 -0.514893 
2.737 3.83 3.72 0.6565 0.6413 11.87 266.225 0.258134 0.255276 
2.739 6.11 5.99 0.6512 0.5822 11.85 265.997 0.790242 0.710523 
2.742 7.57 7.43 0.7302 0.6981 11.80 265.656 1.58755 0.99986 
2.745 6.01 5.86 0.6719 0.8094 11.79 265.315 2.38384 0.687294 
2.748 2.38 2.24 0.8511 0.9348 11.83 264.975 3.1791 -0.0374981 
2.751 -1.12 -1.27 0.8521 0.8534 11.86 264.635 3.97334 -0.739112 
2.754 -2.42 -2.57 0.6990 0.8971 11.84 264.295 4.76657 -0.998533 
2.757 -0.74 -0.89 0.7263 0.7314 11.86 263.956 5.55877 -0.662694 
2.760 2.91 2.76 0.6364 0.7169 11.86 263.617 0.0667798 0.0667302 
2.763 6.35 6.20 0.6227 0.6708 11.85 263.279 0.856955 0.755853 
2.766 7.56 7.41 0.6555 0.6805 11.79 262.941 1.64612 0.997165 
2.769 5.83 5.67 0.8749 0.8132 11.79 262.604 2.43427 0.649804 
2.772 2.18 2.02 0.7737 0.7419 11.84 262.267 3.2214 -0.0797258 
2.775 -1.23 -1.39 0.9271 0.9250 11.86 261.931 4.00753 -0.761704 
2.778 -2.42 -2.55 0.8999 0.7848 11.85 261.594 4.79265 -0.996781 
2.781 -0.67 -0.82 0.7177 0.7658 11.85 261.259 5.57676 -0.649117 
2.784 2.96 2.80 0.6466 0.5586 11.86 260.924 0.0766827 0.0766076 
2.787 6.36 6.21 0.6467 0.6394 11.84 260.589 0.858784 0.757049 
2.790 7.57 7.41 0.7751 0.7399 11.79 260.254 1.63988 0.997615 
2.793 5.88 5.72 0.7519 0.7823 11.78 259.921 2.41998 0.660598 
2.796 2.28 2.15 0.9344 0.8606 11.83 259.587 3.19907 -0.0574476 
2.799 -1.14 -1.28 0.9632 0.8182 11.87 259.254 3.97717 -0.741682 
2.802 -2.43 -2.56 0.7399 0.8506 11.85 258.921 4.75426 -0.999123 
2.805 -0.85 -0.99 0.7887 0.7138 11.85 258.589 5.53036 -0.683701 
2.808 2.68 2.54 0.6313 0.7599 11.86 258.257 0.0222823 0.0222805 
2.811 6.16 5.99 0.6314 0.6465 11.85 257.926 0.796392 0.714838 
2.815 7.39 7.28 0.7539 0.7332 11.78 257.485 1.82699 0.967361 
2.818 5.14 5.03 0.8174 0.8349 11.79 257.155 2.59879 0.51654 
2.821 1.44 1.30 0.9211 0.9044 11.84 256.825 3.36959 -0.226028 
2.824 -1.64 -1.76 0.9565 0.7539 11.86 256.495 4.13941 -0.840288 
2.827 -2.35 -2.46 0.7700 0.8260 11.84 256.166 4.90823 -0.980884 
2.830 -0.29 -0.41 0.7722 0.7911 11.84 255.837 5.67607 -0.570497 
2.833 3.35 3.24 0.6362 0.6470 11.87 255.509 0.159744 0.159066 
2.836 6.55 6.44 0.6215 0.7162 11.84 255.181 0.925616 0.798991 
2.839 7.52 7.41 0.7487 0.7446 11.75 254.854 1.69051 0.992843 
2.842 5.73 5.61 0.8200 0.8071 11.79 254.527 2.45441 0.63436 
2.845 2.18 2.06 0.9590 0.9152 11.83 254.2 3.21734 -0.0756756 
2.848 -1.16 -1.27 0.9543 0.9337 11.86 253.874 3.97929 -0.743104 
2.851 -2.44 -2.56 0.8534 0.7833 11.84 253.549 4.74026 -0.999612 
2.854 -0.98 -1.07 0.6293 0.7622 11.84 253.223 5.50026 -0.705359 
2.858 3.68 3.59 0.6270 0.6188 11.87 252.79 0.22888 0.226887 
2.861 6.71 6.62 0.6187 0.7322 11.84 252.466 0.986601 0.834156 
2.864 7.47 7.38 0.7523 0.7649 11.78 252.142 1.74335 0.985149 
2.867 5.54 5.45 0.8487 0.8218 11.79 251.818 2.49913 0.599169 
2.870 1.98 1.89 0.9641 0.9413 11.84 251.495 3.25394 -0.112109 
2.873 -1.26 -1.35 0.9451 0.9304 11.87 251.173 4.00778 -0.761864 
2.876 -2.44 -2.55 0.8542 1.0364 11.84 250.85 4.76065 -0.998836 
2.879 -0.92 -1.04 0.7263 0.7311 11.83 250.529 5.51256 -0.696585 
2.883 3.70 3.58 0.6378 0.6394 11.86 250.1 0.230416 0.228383 
2.886 6.71 6.59 0.6197 0.7317 11.84 249.779 0.980075 0.830539 
2.889 7.50 7.38 0.7118 0.7596 11.78 249.459 1.72877 0.987548 
2.892 5.64 5.53 0.8156 0.8061 11.78 249.139 2.47651 0.617127 
2.895 2.15 2.03 0.9684 0.9158 11.83 248.819 3.22328 -0.0815998 
2.898 -1.12 -1.24 0.9551 0.9256 11.86 248.5 3.9691 -0.736248 
2.901 -2.44 -2.56 0.8623 0.7762 11.84 248.181 4.71396 -0.999999 
2.905 -0.18 -0.28 0.6777 0.7421 11.85 247.756 5.70563 -0.545982 
2.908 3.38 3.26 0.6057 0.6420 11.87 247.439 0.165073 0.164324 
2.911 6.50 6.38 0.6010 0.7192 11.84 247.121 0.906754 0.787507 
2.914 7.54 7.42 0.7385 0.6987 11.78 246.804 1.64748 0.997061 
2.917 5.98 5.86 0.8317 0.7765 11.79 246.487 2.38726 0.684802 
2.921 1.40 1.31 0.7729 0.9218 11.84 246.066 3.37216 -0.228527 
2.924 -1.57 -1.67 0.9254 0.7556 11.86 245.75 4.10972 -0.823827 
2.927 -2.41 -2.50 0.7803 0.8166 11.84 245.435 4.84634 -0.991042 
2.930 -0.68 -0.77 0.6878 0.7780 11.84 245.12 5.58202 -0.645111 
2.933 2.73 2.61 0.6186 0.6402 11.87 244.805 0.0335624 0.0335561 
2.937 6.79 6.69 0.6547 0.6484 11.83 244.387 1.01174 0.847754 
2.940 7.47 7.38 0.7253 0.6661 11.79 244.073 1.74427 0.984991 
2.943 5.63 5.54 0.7629 0.7998 11.79 243.76 2.47586 0.617633 
2.946 2.24 2.11 0.8866 0.9096 11.84 243.447 3.20652 -0.0648792 
2.949 -1.02 -1.11 0.9468 0.8105 11.86 243.135 3.93623 -0.713613 
2.953 -2.36 -2.45 0.8498 0.7183 11.84 242.719 4.90773 -0.980981 
2.956 -0.46 -0.58 0.6030 0.6845 11.84 242.408 5.63527 -0.603526 
2.959 2.94 2.85 0.6132 0.6715 11.87 242.097 0.0786845 0.0786033 
2.962 6.15 6.05 0.6467 0.6404 11.85 241.786 0.804353 0.720382 
2.966 7.45 7.35 0.7625 0.7553 11.80 241.372 1.77046 0.980133 
2.969 5.56 5.47 0.8371 0.8008 11.79 241.063 2.49396 0.603299 
2.972 2.17 2.08 0.8361 0.8868 11.84 240.754 3.21653 -0.074868 
2.975 -1.03 -1.12 0.8809 0.8368 11.86 240.445 3.93817 -0.71497 
2.979 -2.37 -2.46 0.7582 0.7779 11.84 240.033 4.89892 -0.982653 
2.982 -0.54 -0.63 0.7135 0.7122 11.85 239.725 5.61841 -0.616884 
2.985 2.82 2.72 0.6065 0.5437 11.87 239.418 0.0537845 0.0537586 
2.989 6.78 6.69 0.6537 0.6896 11.83 239.008 1.01043 0.847062 
2.992 7.49 7.39 0.7617 0.7497 11.79 238.702 1.72684 0.987849 
2.995 5.75 5.68 0.8067 0.8205 11.80 238.395 2.44234 0.643649 
2.998 2.46 2.39 0.9067 0.7504 11.84 238.09 3.15691 -0.0153176 
3.002 -1.58 -1.65 0.8599 0.8382 11.86 237.682 4.10825 -0.822992 
3.005 -2.44 -2.50 0.8521 0.8400 11.84 237.377 4.82069 -0.994141 
3.008 -0.88 -0.94 0.7027 0.7269 11.85 237.073 5.53221 -0.68235 
3.012 3.51 3.44 0.6184 0.6326 11.87 236.667 0.196305 0.195047 
3.015 6.47 6.40 0.5847 0.5644 11.84 236.364 0.9057 0.786857 
3.018 7.53 7.46 0.7385 0.7136 11.80 236.061 1.61418 0.999059 
3.022 5.29 5.22 0.8096 0.8579 11.80 235.657 2.55742 0.551512 
3.025 1.92 1.86 0.8536 0.7757 11.84 235.354 3.26378 -0.121886 
3.028 -1.15 -1.21 0.9297 0.9421 11.86 235.052 3.96924 -0.736342 
3.032 -2.37 -2.44 0.7938 0.8447 11.84 234.65 4.90845 -0.980842 
3.035 -0.58 -0.64 0.7186 0.6799 11.85 234.349 5.61179 -0.622075 
3.038 2.70 2.61 0.6346 0.6870 11.87 234.049 0.0310566 0.0310516 
3.042 6.66 6.57 0.6083 0.6083 11.84 233.648 0.96625 0.82276 
3.045 7.52 7.43 0.6116 0.7116 11.80 233.349 1.6666 0.995415 
3.048 6.03 5.97 0.8253 0.8143 11.79 233.049 2.36604 0.700109 
3.052 1.76 1.69 0.8128 0.8727 11.85 232.651 3.29724 -0.155023 
3.055 -1.24 -1.30 0.9409 0.9304 11.86 232.352 3.9946 -0.75326 
3.059 -2.36 -2.42 0.7896 0.8482 11.84 231.955 4.92301 -0.977901 
3.062 -0.55 -0.61 0.6867 0.6139 11.85 231.657 5.61828 -0.616984 
3.065 2.68 2.62 0.6367 0.6228 11.86 231.36 0.029473 0.0294687 
3.069 6.61 6.55 0.6078 0.6577 11.84 230.964 0.953923 0.815691 
3.072 7.53 7.44 0.6070 0.7425 11.79 230.668 1.64622 0.997157 
3.076 5.24 5.18 0.7503 0.7212 11.81 230.273 2.56791 0.54273 
3.079 1.95 1.89 0.9424 0.9316 11.85 229.978 3.25814 -0.116281 
3.082 -1.08 -1.14 0.9086 0.9491 11.86 229.683 3.94748 -0.721446 
3.086 -2.41 -2.47 0.7915 0.8601 11.84 229.29 4.86523 -0.988343 
3.089 -0.79 -0.88 0.6483 0.6935 11.85 228.996 5.55251 -0.667371 
3.093 3.46 3.37 0.7012 0.6496 11.87 228.604 0.184331 0.183289 
3.096 6.36 6.28 0.6218 0.6677 11.85 228.311 0.869557 0.764043 
3.100 7.43 7.35 0.7867 0.7860 11.79 227.92 1.78182 0.977816 
3.103 5.67 5.59 0.7164 0.7921 11.80 227.628 2.465 0.62614 
3.106 2.53 2.42 0.9350 0.9947 11.83 227.336 3.1473 -0.00570684 
3.110 -1.42 -1.50 0.9052 0.9084 11.86 226.947 4.05567 -0.792 
3.113 -2.46 -2.54 0.8807 0.7671 11.84 226.656 4.73593 -0.999723 
3.117 -0.45 -0.54 0.7854 0.7070 11.85 226.268 5.64158 -0.598479 
3.120 2.74 2.63 0.7592 0.6709 11.87 225.978 0.0366232 0.036615 
3.124 6.59 6.48 0.6944 0.7214 11.84 225.591 0.939569 0.807304 
3.127 7.54 7.45 0.7848 0.7551 11.79 225.302 1.61576 0.998989 
3.131 5.47 5.38 0.8872 0.8819 11.80 224.917 2.51601 0.585571 
3.134 2.31 2.20 0.9194 0.9768 11.84 224.628 3.19018 -0.04857 
3.138 -1.50 -1.61 0.9599 0.8832 11.86 224.244 4.08773 -0.811165 
3.141 -2.44 -2.55 0.7382 0.8322 11.84 223.956 4.75989 -0.998872 
3.145 -0.38 -0.50 0.6244 0.6900 11.86 223.573 5.65476 -0.587874 
3.148 2.77 2.65 0.6894 0.7281 11.87 223.286 0.0417168 0.0417047 
3.152 6.59 6.45 0.6569 0.6501 11.84 222.904 0.933907 0.80395 
3.155 7.55 7.44 0.6263 0.7584 11.79 222.618 1.60205 0.999512 
3.159 5.60 5.45 0.8088 0.8722 11.80 222.238 2.49157 0.605204 
3.162 2.49 2.35 0.9299 0.8622 11.84 221.953 3.15771 -0.0161198 
3.166 -1.37 -1.48 0.8730 0.9101 11.86 221.573 4.04457 -0.785177 
3.170 -2.31 -2.45 0.6792 0.8052 11.84 221.194 4.92992 -0.976434 
3.173 -0.62 -0.74 0.7272 0.5865 11.86 220.91 5.59293 -0.636732 
3.177 3.52 3.40 0.5412 0.6632 11.86 220.532 0.192444 0.191258 
3.180 6.33 6.21 0.6420 0.6604 11.84 220.249 0.853475 0.753569 
3.184 7.49 7.37 0.7398 0.8066 11.79 219.873 1.73353 0.986788 
3.187 5.96 5.84 0.8368 0.7234 11.79 219.591 2.39258 0.680913 
3.191 1.92 1.80 0.9612 0.9051 11.85 219.215 3.27001 -0.128063 
3.194 -0.96 -1.11 1.0346 1.2669 11.86 218.934 3.92709 -0.707177 
3.198 -2.42 -2.54 0.8561 0.6973 11.85 218.559 4.80189 -0.995997 
3.202 -0.28 -0.43 0.7719 0.6233 11.85 218.186 5.67519 -0.571222 
3.205 2.81 2.65 0.6078 0.6114 11.86 217.906 0.046003 0.0459868 
3.209 6.54 6.39 0.6497 0.6463 11.84 217.533 0.916694 0.793594 
3.213 7.46 7.31 0.7391 0.7769 11.78 217.161 1.78589 0.976955 
3.216 5.82 5.66 0.9066 0.8304 11.79 216.882 2.43682 0.647861 
3.220 1.77 1.62 0.9412 0.9457 11.85 216.511 3.30342 -0.161123 
3.223 -1.06 -1.19 0.9611 0.7788 11.87 216.234 3.9524 -0.724843 
3.227 -2.41 -2.54 0.8694 0.7382 11.84 215.864 4.81641 -0.994595 
3.231 -0.28 -0.40 0.6803 0.6053 11.86 215.495 5.67894 -0.56814 
3.234 2.77 2.64 0.6202 0.5365 11.87 215.218 0.0416862 0.0416742 
3.238 6.49 6.36 0.6414 0.6649 11.84 214.85 0.901638 0.784344 
3.242 7.47 7.35 0.6750 0.7469 11.77 214.482 1.76012 0.982132 
3.245 5.92 5.81 0.8529 0.8275 11.79 214.207 2.40302 0.673236 
3.249 1.97 1.86 0.8980 0.7899 11.85 213.841 3.25893 -0.117067 
3.253 -1.56 -1.69 0.8671 0.9302 11.85 213.475 4.11338 -0.825893 
3.256 -2.44 -2.55 0.8509 0.7048 11.84 213.201 4.75326 -0.999165 
3.260 -0.58 -0.69 0.6726 0.6322 11.87 212.837 5.60515 -0.627265 
3.264 3.42 3.29 0.6314 0.6297 11.86 212.473 0.1724 0.171547 
3.267 6.17 6.07 0.7235 0.5869 11.84 212.2 0.809272 0.723785 
3.271 7.53 7.43 0.7497 0.7353 11.78 211.837 1.65716 0.996273 
3.275 5.53 5.43 0.8129 0.7815 11.79 211.475 2.50361 0.595578 
3.279 1.52 1.42 1.0102 0.9398 11.85 211.113 3.3486 -0.205534 
3.282 -1.17 -1.27 0.9658 0.8575 11.86 210.842 3.9814 -0.744514 
3.286 -2.42 -2.52 0.8622 0.8267 11.84 210.482 4.82387 -0.993793 
3.290 -0.35 -0.45 0.6675 0.6984 11.86 210.122 5.66489 -0.579644 
3.293 2.61 2.50 0.7374 0.5834 11.87 209.852 0.0115334 0.0115332 
3.297 6.31 6.20 0.6904 0.5229 11.83 209.493 0.850044 0.75131 
3.301 7.52 7.41 0.7176 0.7774 11.78 209.135 1.68712 0.993242 
3.305 5.45 5.35 0.8700 0.8831 11.79 208.777 2.52277 0.58008 
3.308 2.52 2.41 0.9539 0.9824 11.84 208.509 3.14856 -0.00696877 
3.312 -1.17 -1.27 0.9532 0.9738 11.86 208.153 3.98171 -0.744719 
3.316 -2.42 -2.53 0.7078 0.7867 11.84 207.797 4.81343 -0.9949 
3.320 -0.43 -0.54 0.6608 0.7034 11.86 207.441 5.64372 -0.596763 
3.324 3.51 3.38 0.6032 0.7297 11.87 207.086 0.189418 0.188287 
3.327 6.17 6.07 0.7458 0.6438 11.83 206.821 0.810146 0.724388 
3.331 7.55 7.42 0.6206 0.7454 11.78 206.467 1.63654 0.997839 
3.335 5.71 5.58 0.8245 0.8101 11.79 206.114 2.46153 0.628842 
3.339 1.85 1.72 1.0028 0.9596 11.85 205.761 3.2851 -0.143019 
3.343 -1.54 -1.68 0.9840 0.9607 11.86 205.409 4.10727 -0.822434 
3.346 -2.45 -2.55 0.8990 0.8684 11.84 205.146 4.72297 -0.999944 
3.350 -0.81 -0.94 0.7051 0.7172 11.85 204.795 5.54268 -0.674664 
3.354 2.96 2.82 0.6109 0.6979 11.87 204.445 0.0777957 0.0777172 
3.358 6.47 6.33 0.6277 0.7447 11.83 204.095 0.8947 0.780022 
3.362 7.52 7.38 0.7013 0.7324 11.77 203.746 1.71021 0.990298 
3.366 5.46 5.33 0.7692 0.8329 11.79 203.398 2.52432 0.578813 
3.370 1.58 1.47 0.9648 0.9435 11.84 203.05 3.33704 -0.194207 
3.373 -1.05 -1.16 0.9408 0.8674 11.85 202.789 3.94567 -0.72019 
3.377 -2.44 -2.55 0.8688 0.8352 11.85 202.442 4.75596 -0.999051 
3.381 -0.72 -0.86 0.6896 0.7896 11.83 202.096 5.56486 -0.658123 
3.385 3.01 2.88 0.6026 0.5307 11.87 201.75 0.0891973 0.0890791 
3.389 6.47 6.33 0.6252 0.6383 11.83 201.405 0.895336 0.780419 
3.393 7.53 7.39 0.6301 0.7099 11.78 201.061 1.7001 0.991652 
3.397 5.55 5.41 0.8810 0.8010 11.80 200.717 2.50348 0.59568 
3.401 1.74 1.63 1.0548 0.9609 11.85 200.374 3.30549 -0.163165 
3.405 -1.55 -1.66 0.9348 0.9557 11.86 200.031 4.10613 -0.821784 
3.409 -2.37 -2.45 0.7598 0.6965 11.83 199.689 4.9054 -0.981432 
3.412 -0.97 -1.05 0.7072 0.6860 11.85 199.433 5.50395 -0.702734 
3.416 2.64 2.53 0.6025 0.5801 11.87 199.092 0.0176441 0.0176432 
3.420 6.17 6.09 0.6125 0.6044 11.84 198.751 0.813159 0.726462 
3.424 7.54 7.46 0.6582 0.6124 11.79 198.411 1.60731 0.999333 
3.428 5.92 5.84 0.7392 0.7725 11.79 198.072 2.40011 0.675382 
3.432 2.29 2.21 0.9754 0.9906 11.84 197.733 3.19155 -0.0499371 
3.436 -1.18 -1.26 0.9631 0.9788 11.86 197.395 3.98164 -0.744673 
3.440 -2.45 -2.53 0.7219 0.7858 11.84 197.057 4.77037 -0.998319 
3.444 -0.78 -0.86 0.6689 0.7005 11.84 196.72 5.55776 -0.663455 
3.448 2.85 2.75 0.6030 0.7314 11.86 196.384 0.0606133 0.0605762 
3.452 6.28 6.20 0.5929 0.6039 11.83 196.048 0.845309 0.748176 
3.456 7.54 7.44 0.7551 0.7705 11.79 195.713 1.62866 0.998326 
3.460 5.89 5.79 0.8663 0.8861 11.80 195.378 2.41068 0.667553 
3.464 2.30 2.20 0.9613 0.9254 11.84 195.044 3.19135 -0.0497382 
3.468 -1.15 -1.23 0.9323 0.9649 11.86 194.71 3.97069 -0.737324 
3.472 -2.46 -2.54 0.8526 0.8762 11.84 194.377 4.7487 -0.999341 
3.476 -0.90 -0.97 0.6936 0.7172 11.84 194.045 5.52538 -0.687331 
3.480 2.64 2.54 0.5924 0.5134 11.87 193.713 0.0175406 0.0175397 
3.484 6.11 6.00 0.6113 0.6884 11.84 193.381 0.791563 0.711453 
3.489 7.45 7.38 0.7804 0.7759 11.79 192.968 1.75723 0.982671 
3.493 5.44 5.31 0.9274 0.9174 11.80 192.638 2.52828 0.575581 
3.497 1.77 1.67 0.9241 0.8854 11.85 192.309 3.29801 -0.155777 
3.501 -1.44 -1.54 0.9313 0.9198 11.86 191.98 4.06642 -0.798516 
3.505 -2.41 -2.51 0.8425 0.8537 11.84 191.651 4.83352 -0.992673 
3.509 -0.61 -0.71 0.6621 0.7030 11.85 191.324 5.5993 -0.631808 
3.513 2.95 2.85 0.5678 0.6111 11.87 190.996 0.0805923 0.0805051 
3.517 6.29 6.18 0.6093 0.5719 11.84 190.67 0.843761 0.747148 
3.521 7.54 7.46 0.7623 0.7152 11.79 190.344 1.60562 0.999394 
3.525 6.04 5.96 0.7447 0.8665 11.80 190.018 2.36618 0.700007 
3.530 1.69 1.58 0.9589 0.9863 11.85 189.612 3.31506 -0.172595 
3.534 -1.47 -1.55 0.9444 0.8976 11.86 189.288 4.07269 -0.802277 
3.538 -2.41 -2.52 0.9241 0.8012 11.84 188.964 4.82903 -0.993205 
3.542 -0.67 -0.77 0.6848 0.7044 11.85 188.641 5.58408 -0.643533 
3.546 2.82 2.72 0.5779 0.6704 11.86 188.318 0.0546519 0.0546247 
3.550 6.16 6.06 0.6045 0.5277 11.84 187.996 0.807119 0.722297 
3.555 7.49 7.36 0.7495 0.7595 11.79 187.594 1.74589 0.98471 
3.559 5.56 5.46 0.8811 0.8137 11.81 187.273 2.49547 0.602098 
3.563 2.04 1.94 0.9916 0.9732 11.84 186.953 3.24376 -0.101989 
3.567 -1.20 -1.30 0.9279 0.9698 11.86 186.633 3.99077 -0.750738 
3.571 -2.46 -2.54 0.8406 0.7074 11.84 186.314 4.73651 -0.999709 
3.576 -0.35 -0.43 0.6581 0.6741 11.85 185.916 5.66688 -0.578022 
3.580 3.17 3.09 0.5733 0.5987 11.87 185.598 0.126565 0.126227 
3.584 6.37 6.26 0.5946 0.5985 11.84 185.28 0.868162 0.763143 
3.588 7.55 7.45 0.7452 0.6652 11.79 184.963 1.60849 0.99929 
3.593 5.41 5.31 0.9040 0.8573 11.81 184.568 2.53212 0.572433 
3.597 1.91 1.81 0.9615 0.9063 11.85 184.252 3.26961 -0.127664 
3.601 -1.26 -1.34 0.9867 0.9309 11.86 183.937 4.00583 -0.760599 
3.605 -2.45 -2.55 0.8158 0.8720 11.85 183.623 4.74079 -0.999597 
3.610 -0.38 -0.48 0.6120 0.6807 11.85 183.23 5.65773 -0.585469 
3.614 3.07 2.99 0.5654 0.5720 11.86 182.917 0.106678 0.106476 
3.618 6.26 6.16 0.5044 0.6139 11.84 182.604 0.837563 0.743015 
3.623 7.46 7.38 0.7595 0.7823 11.78 182.214 1.74941 0.984091 
3.627 5.63 5.53 0.8254 0.7991 11.80 181.902 2.47749 0.616354 
3.631 2.24 2.14 1.0029 0.9384 11.84 181.591 3.20432 -0.0626845 
3.635 -0.99 -1.10 0.9304 0.9997 11.86 181.28 3.92991 -0.709165 
3.640 -2.41 -2.51 0.7979 0.7857 11.85 180.893 4.83514 -0.992475 
3.644 -0.77 -0.87 0.7225 0.6534 11.85 180.584 5.55794 -0.663317 
3.649 3.41 3.34 0.6837 0.5065 11.86 180.198 0.176516 0.175601 
3.653 6.46 6.36 0.5817 0.6284 11.83 179.889 0.896536 0.781169 
3.657 7.54 7.44 0.7480 0.7422 11.79 179.582 1.61532 0.999009 
3.662 5.51 5.38 0.8517 0.8567 11.80 179.198 2.51208 0.588751 
3.666 2.12 2.02 1.0742 0.9643 11.85 178.891 3.22811 -0.0864048 
3.670 -1.04 -1.14 0.9209 1.0046 11.86 178.585 3.94291 -0.71827 
3.675 -2.41 -2.51 0.7937 0.8092 11.84 178.204 4.83469 -0.992531 
3.679 -0.81 -0.91 0.6670 0.6888 11.85 177.899 5.54674 -0.671659 
3.684 3.31 3.21 0.5799 0.5019 11.86 177.519 0.151907 0.151324 
3.688 6.34 6.24 0.5887 0.6080 11.83 177.215 0.861222 0.75864 
3.693 7.49 7.36 0.6981 0.7754 11.78 176.836 1.74616 0.984663 
3.697 5.73 5.63 0.8376 0.8883 11.80 176.534 2.45275 0.635645 
3.701 2.45 2.38 1.0549 0.9239 11.84 176.232 3.15813 -0.016536 
3.706 -1.35 -1.46 0.9591 0.9283 11.86 175.855 4.03816 -0.781188 
3.710 -2.46 -2.54 0.8736 0.9138 11.85 175.554 4.74083 -0.999596 
3.715 -0.55 -0.62 0.6467 0.6465 11.85 175.179 5.61747 -0.61762 
3.719 2.71 2.63 0.5792 0.4812 11.86 174.88 0.0342547 0.034248 
3.724 6.48 6.40 0.5107 0.6206 11.83 174.506 0.907531 0.787986 
3.728 7.53 7.46 0.7290 0.7747 11.78 174.207 1.60481 0.999422 
3.733 5.64 5.54 0.8659 0.8348 11.80 173.835 2.47473 0.618527 
3.737 2.40 2.33 1.0054 0.9966 11.85 173.538 3.16932 -0.0277263 
3.742 -1.36 -1.43 0.9674 0.9600 11.86 173.167 4.0359 -0.779774 
3.746 -2.46 -2.53 0.7263 0.8705 11.84 172.871 4.72782 -0.999881 
3.751 -0.66 -0.72 0.6643 0.7442 11.85 172.501 5.59107 -0.638169 
3.756 3.38 3.31 0.5422 0.5709 11.86 172.132 0.169282 0.168474 
3.760 6.31 6.25 0.6238 0.5913 11.83 171.838 0.857075 0.755931 
3.765 7.48 7.41 0.7710 0.7530 11.77 171.471 1.71516 0.989597 
3.769 5.91 5.84 0.8729 0.8751 11.78 171.177 2.40031 0.675234 
3.774 1.97 1.90 1.0163 1.0128 11.85 170.811 3.2551 -0.113264 
3.778 -1.04 -1.11 0.9796 0.8695 11.87 170.519 3.93762 -0.71458 
3.783 -2.44 -2.53 0.8457 0.8272 11.84 170.155 4.78912 -0.997058 
3.788 -0.47 -0.54 0.5696 0.6763 11.84 169.791 5.6388 -0.600706 
3.792 2.70 2.64 0.5607 0.5764 11.86 169.501 0.034054 0.0340474 
3.797 6.37 6.33 0.5973 0.4981 11.83 169.138 0.88047 0.771039 
3.802 7.46 7.42 0.7655 0.7528 11.76 168.777 1.72508 0.988122 
3.806 5.90 5.86 0.8957 0.8023 11.78 168.488 2.39946 0.675859 
3.811 2.02 1.99 1.0601 0.9813 11.85 168.128 3.24082 -0.0990683 
3.816 -1.50 -1.56 0.9592 0.9669 11.86 167.769 4.08039 -0.806846 
3.820 -2.46 -2.53 0.8025 0.8664 11.84 167.482 4.75074 -0.999265 
3.825 -0.68 -0.74 0.5574 0.7484 11.84 167.124 5.58708 -0.641235 
3.830 3.22 3.16 0.5279 0.5748 11.86 166.767 0.13844 0.137999 
3.834 6.13 6.07 0.5459 0.5064 11.83 166.481 0.804794 0.720688 
3.839 7.55 7.43 0.8753 0.7611 11.77 166.126 1.63613 0.997866 
3.844 5.67 5.58 0.8686 0.8381 11.79 165.77 2.46569 0.625598 
3.849 1.80 1.69 1.0385 0.9597 11.86 165.416 3.29348 -0.151308 
3.853 -1.09 -1.17 0.9955 1.1359 11.86 165.133 3.95444 -0.726248 
3.858 -2.44 -2.53 0.7641 0.7812 11.83 164.78 4.77905 -0.997779 
3.863 -0.60 -0.69 0.6706 0.6266 11.85 164.428 5.60189 -0.629798 
3.868 3.24 3.15 0.5993 0.5539 11.86 164.077 0.139793 0.139338 
3.872 6.11 6.03 0.6025 0.6179 11.82 163.796 0.795397 0.714142 
3.877 7.54 7.45 0.7648 0.7717 11.74 163.446 1.61333 0.999096 
3.882 5.82 5.71 0.8839 0.9301 11.79 163.096 2.42951 0.653414 
3.887 2.05 1.93 0.9491 0.9804 11.85 162.748 3.24394 -0.102172 
3.892 -1.41 -1.52 1.0166 1.0156 11.85 162.4 4.05664 -0.792591 
3.897 -2.38 -2.50 0.7864 0.7847 11.83 162.053 4.8676 -0.987979 
3.901 -0.92 -1.03 0.6703 0.5669 11.85 161.776 5.51512 -0.694747 
3.906 2.76 2.64 0.5567 0.5656 11.86 161.43 0.0397722 0.0397617 
3.911 6.30 6.18 0.5345 0.6072 11.82 161.085 0.845886 0.748559 
3.916 7.54 7.42 0.6290 0.7259 11.78 160.741 1.65028 0.996843 
3.921 5.74 5.62 0.9170 0.8324 11.80 160.397 2.45295 0.63549 
3.926 2.00 1.88 1.0450 1.0436 11.85 160.054 3.25391 -0.112077 
3.931 -1.39 -1.51 0.9180 0.9808 11.85 159.712 4.05315 -0.790459 
3.936 -2.39 -2.51 0.8465 0.7559 11.84 159.371 4.85069 -0.990452 
3.941 -0.41 -0.53 0.6101 0.6300 11.85 159.03 5.64652 -0.594518 
3.946 3.34 3.22 0.5580 0.4626 11.86 158.69 0.157464 0.156814 
3.950 6.13 5.98 0.5564 0.7369 11.83 158.419 0.791546 0.71144 
3.955 7.57 7.42 0.7336 0.7108 11.78 158.08 1.58262 0.99993 
3.960 6.04 5.92 0.9166 0.8543 11.79 157.742 2.37201 0.695836 
3.965 2.48 2.33 1.1173 1.0086 11.85 157.405 3.15971 -0.0181153 
3.970 -1.04 -1.16 0.9945 0.9210 11.86 157.069 3.94572 -0.720229 
3.975 -2.44 -2.56 0.8079 0.8405 11.84 156.733 4.73006 -0.999844 
3.980 -0.92 -1.04 0.6375 0.5696 11.84 156.398 5.51272 -0.69647 
3.985 2.62 2.49 0.5956 0.5429 11.86 156.064 0.0105202 0.01052 
3.990 6.11 5.99 0.4860 0.5514 11.83 155.73 0.789837 0.710239 
3.996 7.49 7.39 0.7456 0.7826 11.78 155.331 1.72282 0.988467 
4.001 5.55 5.45 0.8732 0.9124 11.80 154.999 2.49848 0.599692 
4.006 1.90 1.80 1.0268 1.0665 11.85 154.667 3.27247 -0.130509 
4.011 -1.36 -1.49 1.0470 0.9677 11.86 154.337 4.04482 -0.785329 
4.016 -2.41 -2.54 0.9650 0.7434 11.84 154.007 4.81551 -0.994687 
4.021 -0.65 -0.78 0.7753 0.6700 11.85 153.678 5.58456 -0.643166 
4.026 2.91 2.78 0.5304 0.5217 11.86 153.349 0.0687768 0.0687226 
4.031 6.27 6.14 0.5509 0.4941 11.83 153.021 0.834539 0.740987 
4.036 7.56 7.43 0.6944 0.6753 11.79 152.694 1.59866 0.999612 
4.041 6.07 5.97 0.9290 0.8728 11.80 152.368 2.36116 0.703589 
4.047 1.89 1.79 1.1263 0.9938 11.85 151.977 3.274 -0.132018 
4.052 -1.32 -1.45 1.0048 1.0392 11.86 151.652 4.03291 -0.7779 
4.057 -2.43 -2.54 0.7943 0.7264 11.84 151.328 4.7902 -0.996974 
4.062 -0.81 -0.91 0.7874 0.6444 11.85 151.005 5.54587 -0.672304 
4.067 2.64 2.53 0.5370 0.4276 11.86 150.682 0.0167386 0.0167378 
4.073 6.53 6.42 0.5939 0.5028 11.83 150.296 0.919478 0.795285 
4.078 7.53 7.42 0.7456 0.7940 11.78 149.974 1.66999 0.995084 
4.083 5.86 5.75 0.9088 0.9403 11.80 149.654 2.4189 0.661405 
4.088 2.42 2.34 1.0072 1.0175 11.84 149.334 3.16621 -0.0246162 
4.094 -1.44 -1.51 0.9190 1.0401 11.86 148.951 4.06087 -0.795166 
4.099 -2.44 -2.52 0.7918 0.7975 11.84 148.633 4.80467 -0.995745 
4.104 -0.82 -0.90 0.6241 0.6272 11.85 148.315 5.54688 -0.671552 
4.109 2.56 2.48 0.5234 0.4641 11.86 147.998 0.00432175 0.00432174 
4.115 6.42 6.35 0.5849 0.5607 11.82 147.618 0.89098 0.777688 
4.120 7.51 7.47 0.7337 0.6214 11.78 147.303 1.62813 0.998357 
4.125 6.04 5.97 0.8493 0.9186 11.79 146.988 2.36369 0.701784 
4.131 2.01 1.97 1.0173 1.0860 11.86 146.611 3.2443 -0.10253 
4.136 -1.20 -1.21 0.9700 0.9730 11.86 146.298 3.97642 -0.741179 
4.142 -2.44 -2.46 0.8140 0.8295 11.84 145.923 4.85289 -0.990146 
4.147 -0.71 -0.75 0.6415 0.5722 11.85 145.611 5.58157 -0.645454 
4.152 2.65 2.61 0.5114 0.5466 11.86 145.299 0.0255014 0.0254987 
4.158 6.42 6.38 0.5842 0.6003 11.82 144.927 0.895993 0.78083 
4.163 7.53 7.46 0.7384 0.7017 11.77 144.617 1.6197 0.998805 
4.169 5.57 5.53 0.9740 0.8627 11.80 144.246 2.4861 0.609549 
4.174 2.19 2.16 1.0705 1.0164 11.86 143.938 3.20641 -0.0647683 
4.180 -1.48 -1.52 1.0180 0.9320 11.85 143.569 4.06874 -0.799912 
4.185 -2.47 -2.50 0.8022 0.8077 11.83 143.262 4.78566 -0.997317 
4.190 -0.99 -1.05 0.6365 0.5520 11.85 142.956 5.50105 -0.704792 
4.196 2.90 2.84 0.5066 0.4566 11.87 142.589 0.0743195 0.0742511 
4.201 6.08 6.00 0.4918 0.5844 11.83 142.284 0.78635 0.70778 
4.207 7.52 7.46 0.7743 0.7501 11.78 141.919 1.63878 0.99769 
4.213 5.56 5.51 0.9753 0.9307 11.80 141.555 2.48902 0.607232 
4.218 2.27 2.19 1.0744 1.0915 11.85 141.253 3.19589 -0.0542711 
4.224 -1.39 -1.45 0.9783 1.0091 11.86 140.891 4.04214 -0.783667 
4.229 -2.47 -2.52 0.8325 0.7743 11.83 140.59 4.74569 -0.999446 
4.235 -0.66 -0.74 0.5315 0.5780 11.84 140.229 5.58796 -0.640556 
4.240 2.56 2.48 0.5143 0.4952 11.86 139.929 0.00502413 0.00502411 
4.246 6.28 6.19 0.5878 0.6738 11.82 139.57 0.843343 0.746871 
4.252 7.51 7.43 0.6375 0.8376 11.77 139.213 1.67951 0.994096 
4.257 6.02 5.92 0.9203 0.9518 11.79 138.915 2.37468 0.693914 
4.263 2.21 2.13 1.1568 1.0389 11.85 138.559 3.20692 -0.0652856 
4.269 -1.36 -1.44 1.0810 1.0059 11.86 138.203 4.03703 -0.780484 
4.274 -2.46 -2.54 0.8295 0.7531 11.84 137.908 4.72716 -0.999891 
4.280 -0.79 -0.87 0.5935 0.6311 11.85 137.554 5.55337 -0.666729 
4.286 3.01 2.93 0.4793 0.5188 11.87 137.202 0.0942799 0.0941403 
4.292 6.52 6.41 0.5756 0.5897 11.79 136.85 0.916258 0.793329 
4.297 7.55 7.44 0.7185 0.6725 11.76 136.557 1.59963 0.999584 
4.303 5.85 5.77 0.9664 1.1581 11.79 136.207 2.41775 0.662272 
4.309 2.08 2.00 1.0805 1.0356 11.86 135.858 3.23377 -0.0920427 
4.315 -1.39 -1.48 1.0117 0.9256 11.86 135.509 4.04769 -0.787104 
4.320 -2.44 -2.56 0.9188 0.8340 11.83 135.22 4.72437 -0.999928 
4.326 -0.85 -0.96 0.5849 0.6165 11.85 134.873 5.53447 -0.680695 
4.332 2.85 2.74 0.4413 0.5057 11.87 134.527 0.0593163 0.0592816 
4.338 6.38 6.24 0.5353 0.5652 11.82 134.182 0.865271 0.761271 
4.344 7.53 7.42 0.7894 0.7747 11.78 133.838 1.66916 0.995166 
4.350 5.67 5.55 0.9767 1.0272 11.79 133.495 2.47099 0.621461 
4.356 1.93 1.78 1.1174 1.0136 11.84 133.153 3.27076 -0.128805 
4.361 -0.99 -1.14 1.0563 1.0204 11.85 132.868 3.93566 -0.713214 
4.367 -2.44 -2.56 0.7754 0.8071 11.83 132.527 4.73168 -0.999814 
4.373 -0.88 -0.99 0.5874 0.5242 11.85 132.187 5.52565 -0.68713 
4.379 2.73 2.61 0.4692 0.4139 11.86 131.848 0.0344049 0.0343981 
4.385 6.23 6.11 0.5989 0.5398 11.81 131.51 0.824311 0.73408 
4.391 7.56 7.43 0.6322 0.7433 11.77 131.173 1.61219 0.999143 
4.397 5.95 5.82 0.9210 0.9583 11.79 130.837 2.39805 0.676898 
4.403 2.36 2.24 1.0454 1.0259 11.85 130.501 3.1819 -0.0402938 
4.409 -1.10 -1.22 0.9592 0.9880 11.86 130.166 3.96373 -0.732604 
4.415 -2.45 -2.54 0.8149 0.8512 11.83 129.833 4.74356 -0.999514 
4.421 -0.90 -1.00 0.5057 0.6852 11.85 129.5 5.52139 -0.69022 
4.427 2.63 2.51 0.4633 0.4072 11.86 129.168 0.0140421 0.0140416 
4.433 6.09 6.00 0.5315 0.5516 11.82 128.836 0.787888 0.708865 
4.440 7.53 7.40 0.8136 0.8030 11.78 128.451 1.6882 0.993116 
4.446 5.71 5.61 0.9118 0.9090 11.80 128.122 2.45775 0.631774 
4.452 2.13 2.03 1.0555 1.0123 11.85 127.793 3.22533 -0.083642 
4.458 -1.20 -1.30 1.0464 1.0106 11.85 127.465 3.99094 -0.750852 
4.464 -2.45 -2.54 0.7935 0.6844 11.83 127.138 4.75459 -0.99911 
4.470 -0.91 -1.03 0.5764 0.6138 11.85 126.812 5.51628 -0.693909 
4.477 3.17 3.02 0.4553 0.4036 11.86 126.433 0.119265 0.118983 
4.483 6.41 6.28 0.5486 0.5665 11.82 126.109 0.876729 0.768651 
4.489 7.54 7.44 0.7552 0.7825 11.78 125.786 1.63225 0.998112 
4.495 5.98 5.88 0.9997 0.9913 11.80 125.463 2.38583 0.685841 
4.502 1.95 1.84 1.0805 1.0455 11.86 125.088 3.26257 -0.120685 
4.508 -1.27 -1.37 0.9536 0.9721 11.86 124.767 4.01198 -0.764576 
4.514 -2.46 -2.53 0.8152 0.7475 11.83 124.447 4.75946 -0.998893 
4.520 -0.97 -1.05 0.5001 0.6270 11.85 124.128 5.50502 -0.701973 
4.527 2.98 2.91 0.4379 0.3977 11.86 123.757 0.089245 0.0891266 
4.533 6.23 6.16 0.5163 0.5480 11.82 123.439 0.830673 0.738385 
4.540 7.50 7.43 0.7611 0.7961 11.79 123.07 1.69327 0.992509 
4.546 5.80 5.73 0.9610 0.9640 11.81 122.754 2.43058 0.652598 
4.552 2.40 2.36 1.0878 1.0231 11.85 122.44 3.16601 -0.0244141 
4.559 -1.32 -1.39 1.0580 1.0092 11.86 122.073 4.02162 -0.770756 
4.565 -2.46 -2.53 0.6988 0.7070 11.84 121.76 4.75296 -0.999177 
4.572 -0.61 -0.67 0.5666 0.4881 11.85 121.396 5.60383 -0.628292 
4.578 2.77 2.71 0.4353 0.4686 11.86 121.085 0.0479299 0.0479116 
4.585 6.44 6.35 0.5342 0.5269 11.82 120.723 0.894074 0.77963 
4.591 7.54 7.45 0.7580 0.7528 11.77 120.413 1.61733 0.998918 
4.598 5.69 5.62 0.9648 0.9619 11.81 120.053 2.45878 0.630981 
4.604 2.35 2.29 1.0983 1.0513 11.85 119.745 3.17801 -0.0364143 
4.611 -1.30 -1.36 1.0520 0.9159 11.86 119.387 4.0148 -0.766391 
4.617 -2.48 -2.52 0.7452 1.0455 11.84 119.081 4.73004 -0.999844 
4.624 -0.77 -0.83 0.5465 0.5622 11.85 118.724 5.56218 -0.660137 
4.631 3.07 3.01 0.3992 0.4424 11.86 118.369 0.108649 0.108435 
4.637 6.18 6.12 0.5018 0.5221 11.83 118.066 0.817802 0.729645 
4.644 7.52 7.46 0.7451 0.6494 11.78 117.713 1.64285 0.997405 
4.651 5.66 5.60 0.9798 0.9318 11.81 117.361 2.46543 0.625805 
4.657 2.38 2.35 1.1216 1.0722 11.85 117.06 3.16854 -0.0269431 
4.664 -1.21 -1.27 1.0038 1.0772 11.85 116.709 3.98655 -0.747946 
4.671 -2.46 -2.49 0.7696 0.8631 11.83 116.36 4.80212 -0.995977 
4.677 -1.00 -1.06 0.6050 0.5282 11.85 116.062 5.49924 -0.706078 
4.684 2.67 2.60 0.4818 0.4559 11.86 115.715 0.0270998 0.0270965 
4.691 6.25 6.17 0.5241 0.5346 11.82 115.369 0.835718 0.741778 
4.698 7.53 7.45 0.8637 0.7828 11.77 115.024 1.64192 0.997472 
4.705 5.75 5.67 1.0199 0.9763 11.81 114.68 2.44571 0.641066 
4.712 2.01 1.93 1.0846 1.0224 11.85 114.337 3.24709 -0.105303 
4.718 -1.01 -1.09 1.0125 1.1083 11.86 114.043 3.93208 -0.710699 
4.725 -2.49 -2.51 0.7976 0.7396 11.84 113.702 4.72902 -0.999862 
4.732 -0.92 -0.97 0.4800 0.5973 11.85 113.362 5.52358 -0.688638 
4.739 2.69 2.64 0.4628 0.4486 11.86 113.023 0.0325686 0.0325629 
4.746 6.20 6.12 0.4517 0.4888 11.82 112.685 0.822377 0.732765 
4.753 7.55 7.44 0.7245 0.6728 11.77 112.348 1.60982 0.999239 
4.760 5.93 5.86 1.0281 0.9960 11.80 112.012 2.39491 0.679205 
4.767 2.36 2.28 1.1573 1.1471 11.85 111.677 3.17766 -0.0360552 
4.774 -1.10 -1.18 1.0364 1.0075 11.87 111.343 3.95806 -0.728729 
4.781 -2.46 -2.54 0.7549 0.8496 11.84 111.01 4.73612 -0.999718 
4.788 -0.95 -1.02 0.4925 0.4797 11.84 110.678 5.51186 -0.697084 
4.795 2.55 2.47 0.3496 0.4470 11.86 110.347 0.00209683 0.00209683 
4.803 6.42 6.31 0.5554 0.6164 11.80 109.969 0.883172 0.772756 
4.810 7.54 7.43 0.8027 0.7562 11.77 109.641 1.65164 0.996734 
4.817 5.86 5.76 1.0641 1.1026 11.80 109.313 2.41781 0.662221 
4.824 2.35 2.25 1.1376 1.1008 11.85 108.986 3.18169 -0.0400902 
4.831 -1.04 -1.15 0.9852 1.0621 11.87 108.66 3.94329 -0.718537 
4.839 -2.42 -2.53 0.8660 0.8059 11.83 108.288 4.81089 -0.995152 
4.846 -0.71 -0.85 0.5380 0.5108 11.86 107.964 5.56762 -0.656047 
4.853 2.75 2.64 0.3887 0.3621 11.86 107.641 0.0388891 0.0388793 
4.860 6.12 5.99 0.4939 0.4985 11.80 107.319 0.791091 0.711121 
4.868 7.54 7.43 0.8092 0.8016 11.77 106.953 1.64799 0.997022 
4.875 5.96 5.82 0.9949 1.0892 11.80 106.633 2.39538 0.67886 
4.883 2.03 1.92 1.1725 1.1328 11.85 106.268 3.2468 -0.105018 
4.890 -1.19 -1.31 1.1302 1.0348 11.86 105.95 3.98941 -0.749839 
4.897 -2.44 -2.56 0.8263 0.8145 11.83 105.634 4.7298 -0.999848 
4.905 -0.70 -0.82 0.5538 0.4973 11.85 105.273 5.57324 -0.651794 
4.912 2.69 2.57 0.4022 0.4699 11.86 104.958 0.0257007 0.0256979 
4.920 6.36 6.24 0.5263 0.5420 11.81 104.599 0.863747 0.760282 
4.927 7.57 7.42 0.7894 0.8208 11.77 104.286 1.59469 0.999715 
4.935 5.81 5.74 1.0277 1.3699 11.80 103.93 2.42737 0.65503 
4.942 2.46 2.42 1.1133 1.0780 11.85 103.619 3.15363 -0.0120414 
4.950 -1.20 -1.24 1.0435 1.0476 11.85 103.265 3.98099 -0.744241 
4.958 -2.45 -2.51 0.8071 0.6538 11.83 102.912 4.80552 -0.995667 
4.965 -0.92 -0.96 0.5093 0.5432 11.85 102.604 5.52467 -0.687846 
4.973 2.83 2.77 0.3689 0.4197 11.86 102.253 0.0607344 0.0606971 
4.981 6.37 6.31 0.5163 0.4725 11.80 101.904 0.877187 0.768943 
4.988 7.54 7.46 0.7552 0.7892 11.79 101.599 1.58929 0.999829 
4.996 5.90 5.85 1.1249 1.0453 11.81 101.252 2.40052 0.675079 
5.004 2.19 2.13 1.1195 1.1338 11.85 100.906 3.20898 -0.0673324 
5.012 -1.30 -1.36 1.0384 1.0511 11.85 100.561 4.01467 -0.766309 
5.019 -2.46 -2.54 0.7867 0.8372 11.84 100.26 4.71739 -0.999987 
5.027 -0.92 -1.00 0.4932 0.5163 11.85 99.9173 5.51793 -0.692724 
5.035 2.70 2.62 0.4094 0.4102 11.86 99.5758 0.0325424 0.0325367 
5.043 6.22 6.14 0.5025 0.4512 11.81 99.2355 0.827617 0.736321 
5.051 7.55 7.44 0.6751 0.8764 11.78 98.8963 1.61997 0.998791 
5.059 5.88 5.80 1.0820 1.0368 11.81 98.5583 2.40962 0.668336 
5.067 2.27 2.18 1.2680 1.1919 11.85 98.2215 3.19657 -0.0549531 
5.075 -1.17 -1.27 1.0103 1.0387 11.85 97.8858 3.98083 -0.744136 
5.083 -2.44 -2.55 0.8231 0.8005 11.84 97.5512 4.76241 -0.998749 
5.091 -0.82 -0.93 0.5536 0.5223 11.85 97.2178 5.54132 -0.675662 
5.099 2.73 2.62 0.3642 0.3817 11.86 96.8856 0.0343849 0.0343781 
5.107 6.18 6.04 0.5346 0.4807 11.82 96.5545 0.807979 0.722892 
5.115 7.57 7.43 0.7743 0.7838 11.77 96.2245 1.57893 0.999967 
5.124 5.77 5.66 1.0524 1.1506 11.82 95.8546 2.4431 0.643066 
5.132 2.22 2.11 1.1112 1.1788 11.85 95.527 3.20846 -0.0668171 
5.140 -1.13 -1.25 1.1114 1.0691 11.85 95.2005 3.97121 -0.73767 
5.148 -2.44 -2.56 0.7286 0.7926 11.84 94.8751 4.73134 -0.99982 
5.157 -0.67 -0.77 0.4663 0.5231 11.85 94.5104 5.5834 -0.644057 
5.165 2.83 2.71 0.3543 0.3811 11.86 94.1874 0.0548388 0.0548114 
5.173 6.16 6.06 0.5887 0.4642 11.82 93.8655 0.806889 0.722138 
5.182 7.53 7.44 0.8215 0.7687 11.77 93.5046 1.64987 0.996875 
5.190 5.92 5.86 1.1330 0.9958 11.81 93.1851 2.39647 0.678061 
5.199 2.06 2.02 1.1838 1.2032 11.86 92.8269 3.23334 -0.0916232 
5.207 -1.18 -1.22 1.0930 0.9719 11.86 92.5096 3.97453 -0.739911 
5.215 -2.48 -2.52 0.7808 0.8606 11.83 92.1934 4.71318 -1 
5.224 -0.86 -0.90 0.4291 0.5042 11.85 91.839 5.54115 -0.675788 
5.233 2.94 2.88 0.3018 0.3904 11.86 91.486 0.0827519 0.0826575 
5.241 6.15 6.12 0.4812 0.4156 11.81 91.1733 0.813232 0.726512 
5.250 7.52 7.46 0.8278 0.8140 11.78 90.8228 1.63204 0.998125 
5.258 6.06 6.00 1.1040 1.0918 11.80 90.5124 2.35722 0.706379 
5.267 2.38 2.33 1.1546 1.2435 11.85 90.1645 3.17009 -0.028498 
5.276 -1.18 -1.26 1.1350 1.0397 11.84 89.8179 3.97984 -0.743473 
5.285 -2.44 -2.53 0.8262 0.7766 11.83 89.4726 4.78647 -0.997257 
5.293 -0.97 -1.08 0.4397 0.5419 11.85 89.1668 5.50088 -0.704918 
5.302 2.65 2.54 0.3286 0.3625 11.86 88.8241 0.0184795 0.0184785 
5.311 6.21 6.07 0.5736 0.5243 11.80 88.4826 0.816188 0.72854 
5.320 7.58 7.41 0.7355 0.8328 11.77 88.1425 1.61083 0.999199 
5.329 5.94 5.80 1.1188 1.0874 11.80 87.8036 2.40242 0.673679 
5.338 2.31 2.19 1.2540 1.2254 11.86 87.4661 3.19096 -0.0493484 
5.347 -1.15 -1.26 1.0774 1.0403 11.85 87.1299 3.97647 -0.741217 
5.356 -2.43 -2.55 0.7601 0.6498 11.83 86.7949 4.75897 -0.998915 
5.365 -0.83 -0.95 0.3700 0.4269 11.86 86.4613 5.53845 -0.677776 
5.374 2.73 2.58 0.3179 0.3272 11.85 86.1289 0.0317551 0.0317498 
5.383 6.17 6.04 0.4493 0.4760 11.80 85.7978 0.805259 0.72101 
5.392 7.55 7.45 0.8650 0.6660 11.78 85.468 1.57579 0.999988 
5.402 5.82 5.72 1.1112 1.0845 11.81 85.103 2.42846 0.654205 
5.411 2.27 2.22 1.1530 1.2682 11.85 84.7759 3.19275 -0.0511374 
5.420 -1.11 -1.15 1.1078 1.0569 11.85 84.45 3.95411 -0.726017 
5.429 -2.49 -2.50 0.7967 0.7703 11.83 84.1254 4.71253 -1 
5.439 -0.82 -0.86 0.4099 0.4685 11.85 83.7661 5.55181 -0.667895 
5.448 2.63 2.57 0.2941 0.3247 11.86 83.4441 0.0209076 0.0209061 
5.458 6.30 6.24 0.4353 0.5025 11.80 83.0878 0.853388 0.753512 
5.467 7.53 7.47 0.7933 0.6988 11.78 82.7684 1.59958 0.999586 
5.477 5.80 5.77 1.0981 1.1074 11.81 82.4149 2.42532 0.656579 
5.486 2.39 2.37 1.2565 1.1738 11.86 82.0981 3.16547 -0.0238733 
5.496 -1.22 -1.25 1.0272 1.0572 11.85 81.7476 3.98452 -0.746594 
5.505 -2.49 -2.51 0.6627 0.7545 11.83 81.4333 4.71868 -0.99998 
5.515 -0.89 -0.94 0.3933 0.3848 11.85 81.0856 5.5311 -0.683166 
5.525 2.82 2.75 0.2645 0.3001 11.85 80.7393 0.0568606 0.05683 
5.535 6.33 6.26 0.5620 0.4930 11.81 80.3945 0.862356 0.759378 
5.544 7.55 7.45 0.8450 0.7779 11.78 80.0855 1.58436 0.999908 
5.554 5.98 5.90 1.1571 1.1542 11.82 79.7435 2.38333 0.687659 
5.564 2.37 2.26 1.2101 1.2699 11.86 79.4029 3.17889 -0.0372925 
5.574 -1.15 -1.23 1.1521 1.0839 11.85 79.0639 3.97106 -0.73757 
5.584 -2.45 -2.53 0.6108 0.6668 11.83 78.7262 4.75984 -0.998875 
5.594 -0.81 -0.92 0.3956 0.3914 11.85 78.3901 5.54525 -0.672762 
5.604 2.77 2.67 0.2471 0.2759 11.85 78.0553 0.0441229 0.0441086 
5.614 6.23 6.10 0.4713 0.5550 11.81 77.722 0.822841 0.733081 
5.624 7.58 7.42 0.8918 0.8440 11.78 77.3901 1.59823 0.999624 
5.634 6.06 5.91 1.1138 1.1679 11.81 77.0596 2.37032 0.697051 
5.645 2.20 2.06 1.3026 1.2857 11.86 76.6977 3.2158 -0.0741391 
5.655 -1.16 -1.28 1.0251 1.1117 11.85 76.3702 3.98097 -0.74423 
5.665 -2.44 -2.56 0.7399 0.7117 11.84 76.0441 4.74288 -0.999535 
5.675 -0.96 -1.08 0.3788 0.3815 11.84 75.7193 5.50153 -0.704452 
5.686 2.82 2.67 0.2598 0.3179 11.86 75.3637 0.0491263 0.0491066 
5.696 6.15 6.03 0.4301 0.4805 11.81 75.0419 0.800992 0.718047 
5.707 7.54 7.44 0.8666 0.8122 11.78 74.6895 1.62434 0.998567 
5.717 6.02 5.95 1.1572 1.2003 11.81 74.3705 2.36948 0.697653 
5.728 2.32 2.25 1.2118 1.2898 11.85 74.0212 3.18546 -0.0438486 
5.739 -1.25 -1.30 1.0781 1.1010 11.85 73.6736 3.9976 -0.755233 
5.749 -2.48 -2.52 0.7043 0.6058 11.84 73.359 4.73261 -0.999796 
5.760 -0.86 -0.92 0.3171 0.3693 11.85 73.0145 5.53749 -0.678484 
5.771 2.81 2.75 0.2292 0.2497 11.85 72.6716 0.0554034 0.0553751 
5.782 6.30 6.23 0.4892 0.4937 11.80 72.3303 0.852742 0.753087 
5.792 7.53 7.47 0.8200 0.7139 11.77 72.0214 1.57434 0.999994 
5.803 6.05 5.96 1.1893 1.2129 11.81 71.6832 2.36455 0.701174 
5.814 2.47 2.44 1.3390 1.1980 11.86 71.3465 3.15104 -0.00944991 
5.825 -1.03 -1.09 1.1473 1.1852 11.85 71.0115 3.93384 -0.711935 
5.836 -2.44 -2.55 0.6969 0.7507 11.83 70.678 4.71297 -1 
5.848 -0.76 -0.87 0.3584 0.3561 11.86 70.3159 5.55875 -0.662715 
5.859 2.81 2.67 0.1809 0.1950 11.85 69.9857 0.0470535 0.0470362 
5.870 6.21 6.07 0.5184 0.4873 11.79 69.657 0.814923 0.727673 
5.881 7.56 7.44 0.8499 0.7835 11.77 69.3299 1.57919 0.999965 
5.893 5.90 5.79 1.3542 1.2669 11.81 68.9748 2.40883 0.668922 
5.904 2.42 2.33 1.2663 1.2392 11.87 68.6508 3.16561 -0.0240173 
5.916 -1.21 -1.27 1.1536 1.1154 11.85 68.2992 3.98713 -0.748331 
5.927 -2.47 -2.53 0.7645 0.6958 11.83 67.9784 4.7365 -0.999709 
5.939 -0.80 -0.89 0.2942 0.3239 11.85 67.6302 5.54998 -0.669258 
5.950 2.59 2.50 0.2063 0.2118 11.85 67.3126 0.00881642 0.0088163 
5.962 6.18 6.09 0.4558 0.4691 11.80 66.9678 0.814325 0.727263 
5.974 7.54 7.45 0.7921 0.9114 11.77 66.6248 1.61571 0.998992 
5.986 5.88 5.78 1.2233 1.2939 11.82 66.2836 2.41299 0.665831 
5.998 2.21 2.14 1.2978 1.2956 11.86 65.944 3.20618 -0.0645418 
6.009 -1.03 -1.06 1.1081 1.1666 11.85 65.6343 3.9297 -0.709023 
6.021 -2.47 -2.53 0.6923 0.7695 11.83 65.2981 4.71513 -0.999996 
6.034 -0.74 -0.86 0.2828 0.2918 11.85 64.9359 5.56147 -0.660676 
6.046 2.83 2.72 0.1901 0.1999 11.85 64.6033 0.0553486 0.0553203 
6.058 6.26 6.11 0.4797 0.4850 11.81 64.2724 0.828435 0.736874 
6.070 7.54 7.45 0.9016 0.8958 11.79 63.9431 1.59756 0.999642 
6.082 6.04 5.98 1.3567 1.2587 11.82 63.6156 2.36275 0.702457 
6.095 2.30 2.24 1.3375 1.3111 11.86 63.2627 3.18728 -0.0456709 
6.107 -1.06 -1.13 1.1298 1.1768 11.85 62.9386 3.94432 -0.719256 
6.120 -2.46 -2.53 0.6822 0.6779 11.84 62.5895 4.76008 -0.998863 
6.132 -0.95 -1.04 0.3194 0.2496 11.85 62.2689 5.50907 -0.699086 
6.145 2.72 2.61 0.1411 0.1952 11.85 61.9234 0.0329573 0.0329513 
6.158 6.27 6.15 0.5048 0.4809 11.80 61.5799 0.835555 0.741669 
6.170 7.54 7.45 0.8866 0.9043 11.78 61.2644 1.57246 0.999999 
6.183 6.04 5.95 1.2649 1.3040 11.82 60.9246 2.36652 0.69977 
6.196 2.46 2.39 1.3453 1.3390 11.86 60.5866 3.15617 -0.0145755 
6.209 -1.05 -1.12 1.1601 1.1458 11.86 60.2504 3.94144 -0.717249 
6.222 -2.47 -2.53 0.7478 0.6746 11.83 59.9162 4.72235 -0.99995 
6.235 -1.00 -1.06 0.2357 0.2722 11.84 59.5838 5.49893 -0.706296 
6.249 2.78 2.69 0.1351 0.1707 11.85 59.2278 0.0472485 0.047231 
6.262 6.18 6.09 0.5561 0.4726 11.80 58.8993 0.814909 0.727663 
6.275 7.56 7.44 0.9256 0.7912 11.77 58.5725 1.57831 0.999972 
6.289 5.95 5.84 1.3631 1.2925 11.81 58.2226 2.3957 0.678629 
6.302 2.50 2.41 1.4289 1.3387 11.86 57.8996 3.15033 -0.00873635 
6.316 -1.11 -1.17 1.1086 1.0834 11.85 57.5538 3.95833 -0.728914 
6.330 -2.46 -2.52 0.6027 0.6504 11.83 57.21 4.7615 -0.998794 
6.343 -0.97 -1.06 0.2014 0.2564 11.86 56.8926 5.50301 -0.703407 
6.357 2.62 2.51 0.0865 0.1070 11.85 56.5527 0.0137641 0.0137636 
6.371 6.15 6.04 0.4860 0.4614 11.79 56.2149 0.802966 0.71942 
6.385 7.56 7.44 0.9249 0.9350 11.78 55.8791 1.58745 0.999861 
6.399 6.04 5.95 1.3714 1.3111 11.81 55.5453 2.36726 0.699242 
6.413 2.54 2.45 1.4168 1.4320 11.85 55.2136 3.1424 -0.000808088 
6.428 -1.13 -1.22 1.1070 1.1189 11.85 54.8603 3.96777 -0.735349 
6.442 -2.44 -2.56 0.5408 0.6071 11.83 54.5326 4.73336 -0.99978 
6.457 -0.78 -0.92 0.1890 0.1779 11.85 54.1836 5.54855 -0.670315 
6.471 2.68 2.53 0.0761 0.0794 11.85 53.86 0.0215084 0.0215067 
6.486 6.25 6.10 0.5311 0.4402 11.80 53.5153 0.826648 0.735665 
6.500 7.54 7.46 0.9607 0.9752 11.78 53.1957 1.57346 0.999996 
6.515 6.01 5.97 1.4136 1.4519 11.83 52.8553 2.36867 0.698228 
6.530 2.42 2.41 1.3794 1.4493 11.86 52.5171 3.15879 -0.0172007 
6.545 -1.08 -1.11 1.1178 1.2208 11.85 52.1811 3.94386 -0.718934 
6.560 -2.46 -2.54 0.6056 0.7137 11.83 51.8472 4.7239 -0.999934 
6.575 -0.99 -1.07 0.1133 0.1984 11.85 51.5154 5.49895 -0.706283 
6.591 2.75 2.61 0.0504 0.0985 11.85 51.1639 0.0370209 0.0370124 
6.606 6.17 6.02 0.4478 0.4263 11.80 50.8365 0.801858 0.718649 
6.622 7.54 7.45 0.9806 1.0236 11.79 50.4896 1.61229 0.999139 
6.637 6.03 5.96 1.3361 1.3659 11.83 50.1665 2.36705 0.699391 
6.653 2.39 2.35 1.4438 1.4842 11.86 49.8242 3.1668 -0.0252037 
6.669 -1.15 -1.16 1.1359 1.1861 11.85 49.4842 3.96109 -0.730806 
6.685 -2.50 -2.50 0.5530 0.5495 11.85 49.1466 4.74997 -0.999294 
6.701 -0.88 -0.93 0.1062 0.1425 11.85 48.8112 5.53346 -0.681436 
6.717 2.71 2.58 0.0225 0.0650 11.85 48.4781 0.0284225 0.0284187 
6.733 6.14 6.04 0.4934 0.4942 11.79 48.1473 0.801258 0.718232 
6.750 7.55 7.44 1.1194 1.1359 11.78 47.7983 1.61662 0.99895 
6.766 6.01 5.90 1.4777 1.4863 11.83 47.4722 2.37862 0.691076 
6.783 2.33 2.25 1.4900 1.4534 11.86 47.128 3.18254 -0.040937 
6.799 -1.02 -1.10 1.0613 1.1588 11.85 46.8065 3.93385 -0.711943 
6.816 -2.45 -2.55 0.5057 0.5341 11.84 46.4672 4.72651 -0.9999 
6.833 -0.90 -1.06 0.0941 0.1247 11.83 46.1303 5.51341 -0.695972 
6.850 2.64 2.47 0.0189 0.0216 11.85 45.796 0.0114304 0.0114302 
6.867 6.10 5.98 0.4924 0.5025 11.80 45.464 0.786971 0.708218 
6.885 7.53 7.46 1.1054 1.0825 11.78 45.1151 1.602 0.999513 
6.902 6.02 5.98 1.5083 1.5162 11.82 44.7881 2.36601 0.700129 
6.920 2.37 2.36 1.5179 1.4017 11.86 44.4444 3.16893 -0.0273361 
6.938 -1.16 -1.18 1.1101 1.0819 11.85 44.1034 3.96569 -0.733934 
6.955 -2.48 -2.52 0.4920 0.5323 11.83 43.7837 4.71256 -1 
6.974 -0.85 -0.90 0.0705 0.0570 11.85 43.4291 5.5409 -0.675971 
6.992 2.75 2.62 -0.0420 0.0174 11.85 43.0959 0.0362741 0.0362662 
7.010 6.18 6.05 0.5640 0.5235 11.80 42.7652 0.808855 0.723497 
7.028 7.55 7.44 1.0933 1.0896 11.80 42.437 1.57551 0.999989 
7.047 6.00 5.91 1.5979 1.5388 11.83 42.0934 2.37837 0.691254 
7.066 2.38 2.29 1.5329 1.4191 11.86 41.7525 3.17473 -0.0331316 
7.085 -1.12 -1.21 1.1109 1.0883 11.85 41.4144 3.96464 -0.733223 
7.104 -2.44 -2.55 0.4205 0.4731 11.84 41.079 4.74816 -0.99936 
7.123 -0.87 -1.00 0.0375 0.0468 11.86 40.7463 5.52533 -0.687367 
7.142 2.62 2.51 -0.0389 -0.0587 11.85 40.4164 0.0130193 0.0130189 
7.162 6.19 6.10 0.5961 0.5436 11.80 40.0719 0.817725 0.729592 
7.181 7.53 7.47 1.1268 1.1584 11.79 39.7474 1.57584 0.999987 
7.201 6.01 5.98 1.4649 1.5837 11.83 39.4087 2.36723 0.699261 
7.221 2.46 2.44 1.5051 1.4281 11.87 39.0728 3.15187 -0.0102796 
7.241 -1.04 -1.05 1.0651 1.0355 11.86 38.7398 3.92983 -0.70911 
7.262 -2.46 -2.53 0.3917 0.4411 11.84 38.3932 4.73955 -0.999631 
7.282 -0.95 -1.08 -0.0513 -0.0612 11.85 38.066 5.50397 -0.702721 
7.303 2.68 2.49 -0.0512 -0.0587 11.84 37.7255 0.0164201 0.0164193 
7.324 6.22 5.99 0.5809 0.5336 11.79 37.388 0.804937 0.720787 
7.345 7.59 7.41 1.2674 1.1615 11.79 37.0535 1.5864 0.999878 
7.366 6.10 5.94 1.6726 1.5194 11.83 36.722 2.36087 0.703792 
7.388 2.44 2.33 1.5632 1.5904 11.86 36.3779 3.16479 -0.0231961 
7.410 -1.08 -1.22 1.0740 1.0195 11.85 36.037 3.96118 -0.730862 
7.431 -2.43 -2.57 0.3482 0.3651 11.83 35.7146 4.7144 -0.999998 
7.454 -0.84 -0.98 -0.1369 -0.1410 11.85 35.3648 5.53163 -0.682774 
7.476 2.67 2.56 -0.0473 -0.0810 11.84 35.0334 0.0226557 0.0226537 
7.498 6.11 5.99 0.6216 0.5095 11.80 34.7051 0.789609 0.710078 
7.521 7.51 7.48 1.3568 1.3113 11.80 34.3652 1.58374 0.999916 
7.544 5.98 5.99 1.6402 1.7014 11.84 34.0286 2.37009 0.69721 
7.567 2.46 2.47 1.5808 1.5029 11.86 33.6953 3.14875 -0.00715235 
7.591 -1.11 -1.14 1.0995 1.0997 11.85 33.351 3.95312 -0.72534 
7.614 -2.44 -2.56 0.2740 0.3447 11.84 33.0243 4.71627 -0.999992 
7.638 -0.88 -1.14 -0.1957 -0.1182 11.86 32.6869 5.50463 -0.702254 
7.662 2.65 2.37 -0.0594 -0.0677 11.85 32.3529 0.00174397 0.00174397 
7.687 6.18 6.03 0.7009 0.6289 11.81 32.0086 0.806083 0.721581 
7.712 7.49 7.51 1.3398 1.3896 11.80 31.668 1.60186 0.999518 
7.736 6.00 6.06 1.7760 1.7057 11.84 31.3444 2.35784 0.705942 
7.762 2.33 2.40 1.6352 1.6658 11.87 30.9976 3.1681 -0.0265084 
7.787 -1.08 -1.07 1.0901 1.0502 11.86 30.6677 3.93875 -0.715371 
7.813 -2.46 -2.53 0.1771 0.2555 11.84 30.3284 4.73152 -0.999817 
7.839 -0.89 -1.05 -0.2549 -0.2551 11.86 29.9928 5.51552 -0.69446 
7.865 2.62 2.46 -0.0671 -0.0613 11.84 29.6609 0.00765389 0.00765381 
7.892 6.13 6.07 0.7602 0.6636 11.80 29.3202 0.803719 0.719942 
7.919 7.47 7.53 1.4918 1.3516 11.80 28.9833 1.59064 0.999803 
7.946 5.99 6.00 1.8383 1.7093 11.84 28.6504 2.36852 0.698339 
7.974 2.38 2.38 1.5146 1.6431 11.87 28.3091 3.16577 -0.0241755 
8.002 -1.04 -1.21 0.9114 0.9862 11.85 27.9719 3.95353 -0.725619 
8.030 -2.37 -2.63 0.1318 0.1369 11.84 27.6387 4.7319 -0.99981 
8.058 -0.91 -1.14 -0.3001 -0.3291 11.85 27.3095 5.501 -0.70483 
8.087 2.59 2.46 -0.0944 -0.0959 11.85 26.9727 0.00473088 0.00473086 
8.117 6.08 6.15 0.7953 0.7348 11.81 26.6286 0.808568 0.723299 
8.146 7.43 7.57 1.3865 1.4439 11.81 26.3002 1.57586 0.999987 
8.176 5.96 6.09 1.8747 1.8410 11.84 25.9647 2.35966 0.704654 
8.207 2.39 2.44 1.5342 1.7211 11.87 25.6225 3.15908 -0.0174831 
8.238 -1.06 -1.15 0.9167 0.9407 11.86 25.2849 3.94796 -0.721778 
8.269 -2.38 -2.62 0.1051 0.0944 11.84 24.9516 4.72645 -0.999901 
8.301 -0.84 -1.08 -0.3221 -0.3375 11.86 24.6123 5.51929 -0.69174 
8.333 2.66 2.52 -0.0529 -0.0842 11.86 24.2775 0.01816 0.018159 
8.365 6.07 6.03 0.7216 0.7935 11.81 23.9473 0.78958 0.710058 
8.398 7.44 7.55 1.6393 1.6079 11.80 23.6115 1.57412 0.999994 
8.432 5.93 6.04 1.9312 2.0261 11.85 23.2704 2.37093 0.696612 
8.466 2.42 2.43 1.6849 1.7328 11.87 22.9343 3.15623 -0.0146337 
8.500 -0.96 -1.13 0.8855 1.0171 11.85 22.603 3.93018 -0.70936 
8.535 -2.33 -2.67 -0.0385 0.0603 11.84 22.267 4.71522 -0.999996 
8.571 -0.77 -1.21 -0.4104 -0.4738 11.86 21.9266 5.51052 -0.698045 
8.607 2.71 2.40 -0.0353 -0.0832 11.84 21.5914 0.0104763 0.0104761 
8.644 6.08 6.12 0.9672 0.8745 11.82 21.2522 0.802895 0.71937 
8.681 7.41 7.59 1.6594 1.6742 11.82 20.9183 1.58287 0.999927 
8.719 5.91 6.05 2.0778 2.0341 11.85 20.5809 2.37116 0.696442 
8.757 2.47 2.48 1.5906 1.7436 11.87 20.2489 3.14675 -0.00515491 
8.796 -0.93 -1.16 0.8194 0.7099 11.86 19.9138 3.92973 -0.709043 
8.836 -2.32 -2.68 -0.1928 -0.1721 11.85 19.5758 4.71934 -0.999976 
8.877 -0.81 -1.14 -0.4372 -0.4858 11.85 19.2353 5.51477 -0.694995 
8.918 2.64 2.49 0.0919 -0.0527 11.84 18.9008 0.0131904 0.0131901 
8.960 6.04 6.13 0.9453 0.8975 11.81 18.5641 0.799762 0.71719 
9.002 7.41 7.59 1.6690 1.7173 11.82 18.2334 1.57232 0.999999 
9.046 5.95 6.04 2.0571 2.1629 11.86 17.8933 2.36691 0.699486 
9.090 2.52 2.43 1.5478 1.6996 11.87 17.5595 3.14669 -0.00509245 
9.135 -0.89 -1.20 0.6841 0.7149 11.86 17.2246 3.92913 -0.708621 
9.181 -2.33 -2.67 -0.2713 -0.3226 11.85 16.8888 4.71355 -0.999999 
9.228 -0.93 -1.13 -0.4711 -0.5632 11.86 16.5525 5.49923 -0.706086 
9.276 2.48 2.54 0.0390 0.1027 11.85 16.216 0.00229233 0.00229233 
9.325 5.96 6.13 1.0795 1.0066 11.82 15.8795 0.788434 0.70925 
9.375 7.45 7.55 1.8351 1.8346 11.82 15.5433 1.5738 0.999995 
9.426 6.06 6.00 2.1593 2.1582 11.86 15.2077 2.35776 0.706001 
9.479 2.57 2.30 1.6118 1.6663 11.87 14.8667 3.15453 -0.0129325 
9.532 -0.89 -1.23 0.5343 0.5122 11.85 14.5333 3.93342 -0.711641 
9.587 -2.45 -2.55 -0.3751 -0.4572 11.85 14.1952 4.72325 -0.999941 
9.643 -1.02 -0.97 -0.5344 -0.4614 11.86 13.8591 5.50857 -0.699443 
9.700 2.48 2.57 0.0979 0.1496 11.85 13.5251 0.00562447 0.00562444 
9.759 6.01 6.11 1.1918 1.0103 11.82 13.1879 0.793447 0.712775 
9.819 7.49 7.51 1.9569 2.0081 11.83 12.8536 1.57448 0.999993 
9.881 6.08 5.95 2.1656 2.2690 11.86 12.517 2.36075 0.703875 
9.945 2.60 2.31 1.5296 1.6445 11.87 12.1788 3.1508 -0.00921078 
10.010 -0.92 -1.18 0.3899 0.3434 11.85 11.8447 3.93135 -0.710184 
10.077 -2.37 -2.63 -0.5058 -0.5217 11.85 11.5099 4.71351 -0.999999 
10.147 -0.97 -1.03 -0.4806 -0.6073 11.86 11.1703 5.50709 -0.700498 
10.218 2.47 2.58 0.1807 0.1701 11.85 10.836 0.00490063 0.00490061 
10.293 6.03 6.11 1.2020 1.2934 11.83 10.4982 0.794029 0.713184 
10.369 7.53 7.47 2.0539 2.1146 11.84 10.1622 1.57889 0.999967 
10.447 6.15 5.90 2.1743 2.3498 11.85 9.82862 2.35829 0.705621 
10.529 2.60 2.31 1.5355 1.5093 11.87 9.4897 3.15009 -0.00850175 
10.613 -0.96 -1.15 0.2096 0.1873 11.86 9.15463 3.93291 -0.711277 
10.700 -2.50 -2.50 -0.6394 -0.6232 11.85 8.82006 4.71455 -0.999998 
10.791 -1.03 -1.01 -0.5662 -0.5314 11.86 8.48318 5.50157 -0.704424 
10.886 2.48 2.60 0.3331 0.2971 11.86 8.14521 0.00796097 0.00796089 
10.984 6.03 6.07 1.5238 1.4416 11.84 7.81068 0.789518 0.710014 
11.087 7.57 7.43 2.1812 2.2361 11.84 7.47387 1.57638 0.999984 
11.194 6.17 5.89 2.2697 2.3549 11.86 7.13936 2.35788 0.705913 
11.307 2.60 2.36 1.3971 1.4093 11.87 6.80233 3.14527 -0.00367244 
11.425 -1.00 -1.07 0.0516 0.0369 11.86 6.46735 3.92784 -0.707709 
11.550 -2.48 -2.52 -0.7086 -0.6550 11.86 6.13048 4.71485 -0.999997 
11.682 -1.03 -1.02 -0.5155 -0.5345 11.86 5.79378 5.50148 -0.704493 
11.822 2.54 2.51 0.5193 0.4637 11.85 5.45685 0.00542992 0.00542989 
11.970 6.05 6.04 1.6762 1.5944 11.84 5.12195 0.787833 0.708826 
12.129 7.60 7.40 2.4491 2.3400 11.85 4.78503 1.57497 0.999991 
12.299 6.14 5.91 2.2180 2.1957 11.86 4.44928 2.35937 0.704858 
12.482 2.58 2.42 1.2007 1.1860 11.87 4.11413 3.14235 -0.000760404 
12.681 -1.06 -1.01 -0.1183 -0.1162 11.86 3.77827 3.927 -0.707116 
12.900 -2.48 -2.51 -0.7735 -0.7649 11.87 3.44173 4.71324 -1 
13.140 -1.04 -1.03 -0.4291 -0.4499 11.86 3.10578 5.49809 -0.706895 
13.408 2.48 2.53 0.5851 0.5295 11.86 2.76925 0.00112265 0.00112265 
13.710 6.10 5.97 1.8552 1.8509 11.86 2.43351 0.78548 0.707165 
14.058 7.61 7.39 2.4305 2.3847 11.86 2.0968 1.57213 0.999999 
14.466 6.14 5.93 2.0800 2.1157 11.85 1.76087 2.35693 0.706583 
