%  1    time 0.001 sec
%  2    mission (2) state 3
%  3  4  5 Acc x,y,z [m/s2]: -4.806909 -0.112681 -8.973696
%  6  7  8 Gyro x,y,z [deg/s]: -0.015259 0.076294 0.122070
%  9 10 Motor velocity ref left, right: -70.00 -70.00
% 11 12 Motor current left, right [A]: 0.374 0.298
% 13 14 Wheel velocity [r/s] left, right: 0.0000 0.0000
% 15 16 17 18 Pose x,y,h,tilt [m,m,rad,rad]: 0.0000 0.0000 0.000000 0.488915
% 19    Battery voltage [V]: 11.63
0.008 3 -4.722998 -0.326055 -10.464916 -1.770020 1.251221 0.198364 70.00 70.00 1.970 2.356 8.4517 0.0000 0.0006 -0.0000 -0.002595 0.488668 10.84 
0.015 3 -3.701679 -0.364414 -8.841836 -3.463745 6.896973 -10.742188 70.00 70.00 -0.766 -0.462 16.9034 10.9054 0.0034 -0.0000 -0.007786 0.396484 12.06 
0.022 3 -2.975249 -1.853237 -10.486494 -9.185791 6.546021 -18.646240 70.00 70.00 0.507 0.709 12.4061 4.8643 0.0054 -0.0000 -0.018168 0.276457 11.30 
0.029 3 -3.965400 -1.551157 -8.801079 -14.213562 2.922058 -28.160095 70.00 70.00 -0.462 -0.234 8.6132 1.7816 0.0064 -0.0001 -0.031146 0.423318 11.79 
0.036 3 -2.826606 1.783711 -9.664165 -5.294800 -6.942749 -8.132935 63.18 63.18 0.355 0.348 4.3622 -1.2842 0.0066 -0.0001 -0.038932 0.284546 11.88 
0.043 3 -3.351650 2.452602 -9.673755 3.738403 -12.840271 9.338379 -70.00 -70.00 1.096 0.899 2.8172 5.0270 0.0074 -0.0001 -0.038932 0.333525 12.02 
0.050 3 -5.856997 -1.452861 -10.052553 4.188538 -0.038147 17.181396 70.00 70.00 0.513 0.253 2.2881 5.4748 0.0082 -0.0001 -0.033741 0.527555 11.30 
0.057 3 -2.443013 1.577529 -7.125254 5.889893 8.323669 10.749817 70.00 70.00 -0.424 -0.494 1.4975 2.1706 0.0084 -0.0001 -0.031146 0.330306 12.39 
0.064 3 -3.883887 2.009072 -6.334092 0.091553 -12.237549 14.617920 70.00 70.00 0.044 -0.032 1.1048 1.2183 0.0088 -0.0002 -0.031146 0.399208 12.66 
0.071 3 -8.007520 0.985356 -15.717753 14.015198 -4.051208 5.752563 70.00 70.00 -0.057 -0.051 7.3493 5.7300 0.0103 -0.0002 -0.033741 0.471185 11.69 
0.078 3 -0.776777 -2.083394 -8.065059 13.053894 17.219543 14.831543 70.00 70.00 -0.842 -0.735 4.9716 4.5378 0.0111 -0.0002 -0.033741 0.096018 11.98 
0.085 3 -4.253096 0.093501 -10.512866 0.022888 0.450134 21.629333 70.00 70.00 1.166 1.014 4.4337 1.9627 0.0117 -0.0002 -0.036337 0.993535 10.90 
0.092 3 -3.406792 0.105488 -8.887387 17.631531 -4.852295 13.885498 -70.00 -70.00 -1.071 -0.798 7.0799 4.6791 0.0129 -0.0003 -0.041528 0.366053 11.04 
0.099 3 -3.049570 -1.508003 -6.887905 12.390137 -5.561829 26.344299 -70.00 -70.00 1.121 0.988 1.8225 1.3984 0.0131 -0.0003 -0.044123 0.416802 11.17 
0.106 3 -3.960605 1.889199 -6.648159 8.949280 -22.567749 30.731201 -70.00 -70.00 0.652 0.513 10.4827 7.3895 0.0141 -0.0004 -0.046719 0.537285 11.98 
0.113 3 -8.498999 1.064473 -9.736089 28.068542 14.373779 26.092529 70.00 70.00 1.539 1.482 4.8995 3.6847 0.0155 -0.0004 -0.049314 0.717661 11.96 
0.120 3 -4.972334 0.644917 -10.498481 15.632629 20.286560 32.150269 70.00 70.00 0.469 0.665 6.2896 5.3661 0.0165 -0.0005 -0.051910 0.442325 12.04 
0.127 3 -3.603384 1.822070 -5.487788 14.114380 12.405396 35.301208 70.00 70.00 -1.539 -1.470 7.9080 4.4192 0.0175 -0.0005 -0.054505 0.581014 11.12 
0.134 3 -1.234692 -0.148643 -7.930800 27.259827 -13.832092 28.823853 -70.00 -70.00 -0.386 -0.431 5.5195 1.8373 0.0183 -0.0006 -0.059696 0.154443 11.61 
0.141 3 -2.284780 -0.860688 -4.375366 16.464233 -28.244019 35.156250 70.00 70.00 -0.627 -0.576 5.1029 2.0034 0.0189 -0.0006 -0.062292 0.481243 12.28 
0.148 3 -12.800043 -0.050347 -15.089619 18.180847 -13.427734 36.163330 70.00 70.00 0.868 0.760 7.8166 5.3449 0.0199 -0.0007 -0.064887 0.703488 11.87 
0.155 3 -1.965918 -0.489082 -9.110352 21.659851 23.857117 25.947571 -70.00 -70.00 0.944 0.817 10.9941 6.9705 0.0217 -0.0008 -0.072674 0.212531 11.98 
0.162 3 -2.258408 0.158232 -0.884663 15.998840 32.966614 31.303406 70.00 70.00 -0.773 -0.614 6.5964 2.8231 0.0229 -0.0009 -0.077865 1.197448 12.02 
0.169 3 -3.857515 1.126807 -10.527250 12.931824 2.838135 46.096802 -70.00 -70.00 0.760 0.722 2.7541 -3.7773 0.0231 -0.0009 -0.080460 0.351237 10.90 
0.176 3 -2.656387 2.994429 -5.960088 27.954102 -27.008057 39.169312 -70.00 -70.00 0.589 0.481 1.1335 -2.2500 0.0229 -0.0009 -0.083056 0.419269 11.31 
0.183 3 -10.088515 -0.601763 -9.088774 30.784607 -18.218994 46.241760 70.00 70.00 0.507 0.393 0.7212 -1.0410 0.0231 -0.0009 -0.085651 0.837483 10.88 
0.190 3 -7.137241 -1.292231 -8.645244 27.984619 24.925232 46.730042 70.00 70.00 1.102 0.893 11.6575 12.1826 0.0249 -0.0010 -0.083056 0.690138 12.62 
0.197 3 -3.090327 0.136655 -11.373554 17.662048 22.857666 45.494080 70.00 70.00 -0.912 -0.798 11.0842 9.3260 0.0275 -0.0013 -0.085651 0.265307 11.14 
0.204 3 -3.759219 -0.896650 -19.639999 16.563416 15.396118 26.313782 70.00 70.00 0.583 0.608 12.2934 5.8540 0.0293 -0.0014 -0.093437 0.189119 11.03 
0.211 3 -3.308496 1.560747 -11.435888 19.027710 4.455566 22.354126 -70.00 -70.00 0.082 0.272 13.1288 2.5515 0.0309 -0.0016 -0.109010 0.281619 11.87 
0.218 3 -1.814878 -0.608955 -7.489668 22.651672 4.325867 28.427124 -70.00 -70.00 0.538 0.507 10.6478 3.8970 0.0323 -0.0017 -0.116797 0.237735 11.20 
0.225 3 -1.692607 2.208061 -9.664165 17.570496 3.501892 43.289185 -70.00 -70.00 0.000 0.038 6.6614 4.1228 0.0335 -0.0019 -0.121988 0.173384 11.83 
0.232 3 -4.183569 0.460312 -8.654834 20.263672 -19.149780 50.102234 70.00 70.00 0.260 0.158 2.6672 2.3037 0.0341 -0.0020 -0.124583 0.450263 12.39 
0.239 3 -4.874038 2.287178 -12.418847 27.992249 -44.639587 45.425415 70.00 70.00 0.114 -0.057 7.2703 5.7543 0.0351 -0.0021 -0.127179 0.373999 12.02 
0.246 3 -11.989702 -1.889199 -12.569887 27.618408 3.936768 37.895203 70.00 70.00 0.912 0.842 11.3636 5.8037 0.0367 -0.0023 -0.132370 0.761779 12.21 
0.253 3 -0.616147 1.239487 -2.493359 20.347595 25.138855 37.025452 70.00 70.00 -1.704 -1.432 11.9670 5.9571 0.0387 -0.0026 -0.137561 0.242262 12.23 
0.260 3 -4.655869 -1.462451 -11.133808 25.482178 6.942749 44.303894 70.00 70.00 0.209 0.165 8.0492 2.7045 0.0397 -0.0027 -0.145347 0.396075 11.94 
0.267 3 -2.510142 -0.350029 -14.828296 29.182434 -7.453918 45.959473 -70.00 -70.00 0.545 0.481 9.9432 6.0101 0.0415 -0.0030 -0.147943 0.167691 12.23 
0.274 3 -2.505347 -1.059678 -17.372002 26.016235 -6.965637 45.486450 -70.00 -70.00 1.337 1.413 13.2575 8.1462 0.0433 -0.0033 -0.155729 0.143230 10.95 
0.281 3 -3.644140 -0.033564 -9.870346 19.584656 7.835388 43.006897 70.00 70.00 -0.051 -0.076 9.5230 5.0084 0.0449 -0.0035 -0.160920 0.353677 11.90 
0.288 3 -1.313809 1.570337 -3.665718 26.016235 10.169983 45.204163 70.00 70.00 0.215 0.196 10.0168 6.3487 0.0467 -0.0038 -0.168706 0.344142 11.01 
0.295 3 -3.306098 -1.074062 -10.383403 26.550293 4.653931 44.937134 70.00 70.00 -0.481 -0.374 7.2703 5.8037 0.0484 -0.0041 -0.171302 0.308253 12.29 
0.302 3 -4.195557 2.469385 -2.965659 21.850586 -6.072998 50.285339 70.00 70.00 0.355 0.393 5.3239 2.8055 0.0490 -0.0042 -0.173897 0.955483 12.51 
0.309 3 -3.011211 -0.946997 -5.749111 32.501221 -32.844543 42.701721 70.00 70.00 -0.880 -0.842 6.1189 3.9773 0.0500 -0.0044 -0.176493 0.482482 11.93 
0.316 3 -12.085600 -0.079116 -17.599760 29.838562 -29.655457 48.507690 70.00 70.00 0.741 0.684 4.4777 1.9346 0.0508 -0.0045 -0.181684 0.601738 12.34 
0.323 3 -8.676411 -0.110283 -8.319189 26.588440 6.172180 56.449890 70.00 70.00 -0.849 -0.817 10.1674 8.0016 0.0522 -0.0048 -0.184279 0.806414 11.98 
0.330 3 -3.545845 1.455259 -5.777881 29.113770 18.188477 52.276611 -70.00 -70.00 0.798 0.678 8.4517 7.3895 0.0538 -0.0051 -0.189470 0.550427 12.18 
0.337 3 -6.185449 0.453120 -9.462778 33.821106 10.719299 53.176880 70.00 70.00 0.095 0.013 9.3260 8.6684 0.0554 -0.0054 -0.189470 0.578945 11.85 
0.344 3 -2.128945 -2.704336 -8.640449 28.610229 -3.868103 46.585083 -70.00 -70.00 -0.671 -0.513 11.7589 6.6288 0.0571 -0.0057 -0.192066 0.241581 11.94 
0.351 3 -4.008554 1.496016 -4.346597 25.215149 -12.718201 43.373108 70.00 70.00 -0.773 -0.526 7.6399 2.5807 0.0583 -0.0060 -0.202448 0.744961 12.29 
0.358 3 -14.442305 -1.941943 -15.732139 32.318115 8.590698 34.820557 70.00 70.00 -0.627 -0.608 12.4061 7.2314 0.0599 -0.0063 -0.207639 0.742678 11.12 
0.365 3 -4.785332 -1.601504 -0.661699 17.707825 15.640259 41.236877 70.00 70.00 0.513 0.576 10.9054 7.0431 0.0619 -0.0067 -0.212830 1.433391 10.87 
0.372 3 -1.934751 0.119873 -11.723583 16.456604 8.277893 32.394409 70.00 70.00 -0.690 -0.602 13.1288 5.9835 0.0638 -0.0071 -0.223212 0.163556 12.21 
0.379 3 -3.092725 1.004536 -15.267031 24.421692 -20.957947 29.335022 -70.00 -70.00 0.526 0.583 9.4564 2.7824 0.0652 -0.0075 -0.230998 0.199871 11.30 
0.386 3 -3.440356 -0.304478 -7.192383 20.767212 -30.593872 36.277771 -70.00 -70.00 -0.329 -0.222 8.2961 2.3976 0.0662 -0.0077 -0.238785 0.446165 11.83 
0.393 3 -11.498222 -0.143848 -6.878315 21.903992 -11.459351 39.001465 70.00 70.00 -0.101 -0.051 2.1329 -1.8274 0.0662 -0.0077 -0.243976 1.031696 11.98 
0.400 3 -5.634033 1.752544 -8.477422 23.780823 20.790100 47.714233 -70.00 -70.00 1.970 1.989 5.5195 6.8993 0.0670 -0.0079 -0.243976 0.586565 11.96 
0.407 3 -2.124150 0.822329 -3.246162 28.114319 10.200500 45.364380 70.00 70.00 0.057 -0.032 6.2317 7.2703 0.0685 -0.0083 -0.243976 0.579432 12.04 
0.414 3 -9.539496 0.611353 -17.889853 27.145386 -2.876282 48.187256 -70.00 -70.00 0.519 0.450 9.5230 8.2455 0.0703 -0.0087 -0.246571 0.489881 11.15 
0.421 3 -2.092983 -0.628135 -4.627100 25.924683 -0.221252 30.044556 70.00 70.00 -1.052 -0.861 6.3190 3.8092 0.0713 -0.0090 -0.249167 0.424791 12.50 
0.428 3 -3.723257 0.803149 -5.789868 19.691467 -20.034790 40.718079 70.00 70.00 0.260 0.234 9.9432 5.4970 0.0724 -0.0093 -0.254357 0.571484 11.12 
0.435 3 -9.728896 -0.961382 -11.788315 20.904541 5.645752 32.981873 70.00 70.00 0.348 0.329 13.1288 7.9080 0.0742 -0.0097 -0.262144 0.689978 11.90 
0.442 3 -0.541826 -0.937407 -9.316533 17.005920 15.800476 26.023865 -70.00 -70.00 0.684 0.747 15.3667 7.3096 0.0765 -0.0104 -0.272526 0.058092 11.20 
0.449 3 -3.972593 -1.838853 -12.627426 14.526367 6.187439 20.767212 -70.00 -70.00 0.614 0.728 14.3858 4.5685 0.0784 -0.0109 -0.282908 0.304797 12.04 
0.456 3 -4.200351 -1.208320 -8.978491 18.501282 -11.116028 23.468018 -70.00 -70.00 0.817 0.950 13.6593 6.3487 0.0804 -0.0115 -0.293290 0.437577 11.28 
0.463 3 -6.252578 1.539170 -11.268066 19.554138 -0.289917 29.098511 70.00 70.00 0.703 0.728 12.6380 9.1370 0.0825 -0.0121 -0.301076 0.506593 11.80 
0.470 3 -2.793042 0.894253 -5.669995 14.793396 12.023926 34.896851 70.00 70.00 -1.083 -0.906 6.6944 4.4777 0.0836 -0.0125 -0.306267 0.457710 11.11 
0.477 3 -3.814360 2.109766 -7.273896 16.830444 -15.502930 38.780212 70.00 70.00 1.223 1.166 11.3636 9.9432 0.0852 -0.0130 -0.311458 0.482969 11.91 
0.484 3 -5.876176 0.795957 -6.873520 31.600952 -6.553650 26.985168 70.00 70.00 -0.899 -0.798 9.8706 11.4599 0.0877 -0.0138 -0.314054 0.707332 11.04 
0.491 3 -0.254131 -2.867363 -11.464658 18.035889 16.006470 39.886475 70.00 70.00 1.210 1.071 7.9080 5.9571 0.0892 -0.0143 -0.314054 0.022163 12.43 
0.498 3 -1.325796 -0.400376 -11.951343 12.825012 2.929688 35.507202 -70.00 -70.00 0.507 0.500 9.7991 6.8993 0.0907 -0.0148 -0.319245 0.110481 11.20 
0.505 3 -4.408930 1.316206 -8.048276 26.802063 -1.800537 25.337219 -70.00 -70.00 0.095 0.139 10.6478 5.0458 0.0922 -0.0153 -0.324436 0.501161 11.83 
0.512 3 -5.046655 -0.692866 -6.434785 16.860962 -13.145447 38.688660 -70.01 -69.99 0.114 0.082 10.7323 5.5421 0.0938 -0.0158 -0.329627 0.665080 12.26 
0.519 3 -7.151626 1.189141 -11.318413 20.767212 2.281189 39.459229 69.99 70.01 0.310 0.291 8.7810 4.8995 0.0955 -0.0164 -0.332222 0.563515 11.17 
0.526 3 -3.483511 -0.925420 -8.189726 26.184082 13.061523 34.454346 -70.01 -69.99 1.571 1.634 16.4911 12.5210 0.0978 -0.0172 -0.337413 0.402168 10.98 
0.533 3 -5.389492 0.692866 -15.257441 19.317627 23.429871 37.185669 69.99 70.01 0.507 0.342 8.5048 4.6153 0.0998 -0.0179 -0.345199 0.339556 10.76 
0.540 3 -3.313291 2.946479 -4.957949 19.813538 3.540039 50.720215 69.99 70.01 -0.716 -0.684 8.0492 5.3239 0.1012 -0.0184 -0.347795 0.589118 10.93 
0.547 3 -1.301821 0.623340 -2.742695 31.738281 -17.372131 45.913696 69.99 70.01 1.178 1.071 9.5230 8.6684 0.1027 -0.0189 -0.347795 0.443163 10.96 
0.554 3 -1.807685 -0.776777 -3.008813 23.391724 -16.159058 42.800903 69.99 70.01 -0.488 -0.557 12.5210 10.7323 0.1046 -0.0196 -0.347795 0.541005 11.15 
0.561 3 -9.378867 -1.611094 -19.639999 18.730164 0.389099 31.974792 -70.01 -69.99 0.133 0.171 11.8620 5.5649 0.1063 -0.0203 -0.355581 0.445518 11.79 
0.568 3 -2.785850 1.642261 -4.535996 18.814087 -3.562927 35.423279 69.99 70.01 -1.197 -0.811 9.3260 3.4674 0.1076 -0.0208 -0.363368 0.550770 11.83 
0.575 3 -4.564765 -0.676084 -11.538980 25.543213 -13.847351 36.033630 69.99 70.01 1.191 1.159 9.6591 4.6630 0.1087 -0.0212 -0.368559 0.376703 12.17 
0.582 3 -8.429472 0.345234 -10.431353 24.734497 6.324768 39.375305 -66.34 -66.33 1.970 1.799 14.6986 12.4061 0.1110 -0.0221 -0.373750 0.679654 11.04 
0.589 3 -1.534375 0.011987 -3.821553 28.686523 12.367249 38.520813 69.99 70.01 -0.792 -0.716 13.7987 11.1758 0.1136 -0.0231 -0.378941 0.381804 12.43 
0.596 3 -5.897754 -1.124409 -8.280829 19.943237 3.303528 41.412354 69.99 70.01 -0.253 -0.165 8.8384 4.8818 0.1151 -0.0237 -0.384132 0.618879 12.01 
0.603 3 -3.809565 2.457397 -6.166269 22.140503 -22.315979 41.320801 -70.01 -69.99 0.880 0.855 11.2689 8.5048 0.1169 -0.0245 -0.389323 0.553410 12.23 
0.610 3 -4.655869 -0.127065 -10.054951 31.250000 -13.122559 33.409119 -70.01 -69.99 0.912 0.874 10.9941 7.1929 0.1188 -0.0252 -0.394514 0.433647 12.28 
0.617 3 -6.125513 -1.671030 -10.009399 21.636963 15.357971 37.055969 69.99 70.01 0.608 0.405 8.8384 4.6791 0.1203 -0.0259 -0.399705 0.549179 11.33 
0.624 3 -3.469126 1.059678 -8.522973 17.723083 3.097534 48.828125 69.99 70.01 -0.659 -0.519 13.3888 7.6833 0.1219 -0.0266 -0.407491 0.386554 11.94 
0.631 3 -7.583169 1.246680 -11.373554 32.737732 -5.729675 43.914795 69.99 70.01 -0.779 -0.576 13.1288 10.0916 0.1242 -0.0275 -0.412682 0.588051 12.28 
0.638 3 -1.421694 -1.323398 -6.322104 28.015137 4.692078 44.105530 69.99 70.01 -0.690 -0.633 9.2621 5.7300 0.1256 -0.0282 -0.417873 0.221197 11.30 
0.645 3 -5.077822 1.814878 -8.036289 18.890381 -11.543274 54.428101 -70.01 -69.99 -0.329 -0.291 4.9534 2.1881 0.1266 -0.0286 -0.420468 0.563518 11.90 
0.652 3 -7.715029 1.539170 -12.207870 37.971497 -21.003723 39.665222 -70.01 -69.99 0.222 0.228 1.7816 -2.4321 0.1266 -0.0286 -0.425659 0.563597 12.43 
0.659 3 -6.950239 -0.433940 -9.501138 36.804199 -3.349304 54.733276 -70.01 -69.99 0.279 0.196 2.5563 3.5124 0.1271 -0.0288 -0.423064 0.631566 11.99 
0.666 3 -4.809307 0.714443 -4.298647 28.717041 8.377075 64.643860 69.99 70.01 -0.108 -0.165 6.1467 6.5644 0.1282 -0.0293 -0.423064 0.841407 11.98 
0.673 3 -7.046137 0.769585 -11.572543 35.072327 17.349243 60.409546 69.99 70.01 1.812 1.368 8.7243 8.6684 0.1299 -0.0301 -0.420468 0.546914 11.93 
0.680 3 -0.541826 -0.196592 -5.773086 36.018372 7.377625 59.577942 -70.01 -69.99 0.120 0.057 15.3667 13.0026 0.1326 -0.0313 -0.423064 0.093580 12.28 
0.687 3 -4.075684 -0.453120 -6.231001 23.246765 3.921509 44.502258 69.99 70.01 0.291 0.234 20.4889 11.2689 0.1354 -0.0326 -0.430850 0.579250 12.32 
0.694 3 -5.281606 -0.920625 -11.138603 16.738892 6.874084 32.012939 69.99 70.01 -0.108 -0.038 21.4646 9.5230 0.1383 -0.0339 -0.446423 0.442772 11.45 
0.701 3 -2.769067 -0.402773 -9.664165 14.976501 2.960205 23.864746 69.99 70.01 -0.912 -0.627 22.1684 8.1956 0.1408 -0.0352 -0.461996 0.279053 11.04 
0.708 3 -2.059419 2.227241 -6.844751 24.131775 3.623962 27.992249 69.99 70.01 0.348 0.570 13.7987 4.6470 0.1430 -0.0362 -0.477569 0.292260 12.56 
0.715 3 -2.227241 -1.524785 -11.107436 28.381348 -8.255005 49.369812 60.33 60.34 -0.127 -0.051 11.2689 7.1549 0.1446 -0.0371 -0.485356 0.197894 12.18 
0.722 3 -3.191020 0.462710 -5.681982 28.778076 -11.306763 55.747986 69.99 70.01 1.052 1.020 12.2934 10.6478 0.1465 -0.0381 -0.487951 0.511708 11.04 
0.729 3 -4.521611 0.688071 -3.289316 32.951355 -2.014160 47.981262 69.99 70.01 1.406 1.387 11.2689 8.3473 0.1485 -0.0392 -0.490547 0.941874 11.66 
0.736 3 -6.384439 -0.383594 -12.593862 23.612976 10.391235 40.908813 69.99 70.01 -0.013 -0.006 15.7241 10.1674 0.1509 -0.0405 -0.495738 0.469191 11.72 
0.743 3 -2.625220 0.805547 -7.985942 22.583008 9.147644 41.969299 69.99 70.01 0.032 0.095 10.3227 5.2414 0.1525 -0.0414 -0.503524 0.317602 11.25 
0.750 3 -2.586860 0.477095 -9.371675 28.999329 -9.750366 48.118591 -70.01 -69.99 1.292 1.254 10.0916 9.7991 0.1543 -0.0423 -0.503524 0.269323 12.26 
0.757 3 -6.358066 -2.742695 -9.249404 26.649475 -2.319336 42.884827 -70.01 -69.99 -0.880 -0.652 13.1288 10.3227 0.1568 -0.0437 -0.508715 0.602221 11.20 
0.764 3 -3.497895 -0.781572 -11.030718 23.757935 2.624512 41.107178 -70.01 -69.99 0.057 0.171 6.4702 4.4629 0.1580 -0.0444 -0.511311 0.307075 12.61 
0.771 3 -5.365518 0.314067 -6.384439 23.239136 -2.700806 45.837402 69.99 70.01 1.615 1.438 8.6684 7.7273 0.1592 -0.0451 -0.513906 0.698898 11.01 
0.778 3 -7.552002 0.956587 -9.242211 28.411865 -1.289368 46.577454 -70.01 -69.99 1.850 1.824 13.6593 13.2575 0.1615 -0.0464 -0.516502 0.685094 11.04 
0.785 3 -3.387612 -1.424092 -7.158818 25.505066 9.941101 40.374756 69.99 70.01 -1.945 -1.698 13.0026 10.2445 0.1641 -0.0479 -0.519097 0.441985 12.45 
0.792 3 -6.832764 0.455518 -15.372519 25.222778 -0.328064 43.441772 -70.01 -69.99 1.419 1.248 9.6591 5.8540 0.1655 -0.0487 -0.524288 0.418253 11.30 
0.799 3 -5.749111 0.930215 -7.113266 27.740479 -13.084412 40.916443 69.99 70.01 -0.253 -0.215 13.3888 9.9432 0.1674 -0.0498 -0.526884 0.679735 12.13 
0.806 3 -4.715806 -0.112681 -7.436924 21.675110 1.640320 38.261414 69.99 70.01 0.918 0.906 14.6986 9.5906 0.1695 -0.0510 -0.532075 0.565121 11.25 
0.813 3 -4.243506 -0.239746 -10.381005 17.189026 14.099121 32.012939 69.99 70.01 0.310 0.450 16.6947 9.3260 0.1721 -0.0525 -0.539862 0.388049 12.50 
0.820 3 -4.202749 -0.206182 -11.318413 18.310547 4.943848 35.148621 -70.01 -69.99 -0.754 -0.507 9.6591 5.6111 0.1742 -0.0538 -0.550244 0.355540 12.01 
0.827 3 -2.761875 0.462710 -3.274931 14.419556 -13.214111 45.448303 69.99 70.01 0.070 0.158 2.6156 1.8860 0.1745 -0.0540 -0.555435 0.700614 12.18 
0.834 3 -6.135102 3.883887 -7.029355 25.260925 -23.376465 51.727295 69.99 70.01 0.222 0.146 3.2274 1.0673 0.1748 -0.0542 -0.555435 0.717573 12.29 
0.841 3 -10.057348 -0.304478 -11.433491 39.123535 6.759644 47.798157 -70.01 -69.99 1.900 1.742 11.2689 13.0026 0.1766 -0.0553 -0.555435 0.721452 10.63 
0.848 3 -3.085532 -0.517852 -5.912138 29.655457 16.441345 54.779053 69.99 70.01 0.652 0.519 13.5227 11.3636 0.1788 -0.0567 -0.558030 0.481012 11.96 
0.855 3 -7.587964 -1.762134 -13.202817 22.605896 26.298523 50.254822 69.99 70.01 0.374 0.456 14.3858 9.0756 0.1812 -0.0581 -0.563221 0.521626 11.03 
0.862 3 -3.941426 -0.146245 -6.636172 22.552490 19.371033 32.897949 69.99 70.01 -1.096 -0.735 16.9034 7.7717 0.1832 -0.0594 -0.573604 0.535945 10.90 
0.869 3 -0.652109 0.556211 -1.356963 15.693665 8.735657 36.186218 69.99 70.01 -0.728 -0.570 14.0861 6.1189 0.1852 -0.0608 -0.583986 0.447979 12.29 
0.876 3 -1.472041 0.608955 -5.964883 22.422791 -6.782532 41.854858 -70.01 -69.99 0.171 0.361 12.8788 5.6111 0.1866 -0.0617 -0.594368 0.241950 11.98 
0.883 3 -3.720859 1.956328 -10.378608 27.290344 -28.213501 45.822144 -70.01 -69.99 0.697 0.646 13.6593 10.1674 0.1884 -0.0629 -0.596963 0.344238 11.87 
0.890 3 -10.697471 -0.831919 -19.639999 21.697998 -17.700195 49.285889 -70.01 -69.99 0.152 0.051 14.3858 9.9432 0.1904 -0.0643 -0.602154 0.498748 11.25 
0.897 3 -2.987236 1.383335 -3.080737 24.406433 13.534546 43.899536 69.99 70.01 -0.006 0.070 11.7589 7.5546 0.1922 -0.0655 -0.609941 0.769990 12.28 
0.904 3 -5.209682 0.302080 -5.094604 26.023865 20.492554 42.495728 69.99 70.01 0.285 0.158 16.2924 10.8182 0.1942 -0.0669 -0.615132 0.796566 11.31 
0.911 3 -5.087412 -0.266118 -15.945512 20.988464 13.587952 33.088684 -70.01 -69.99 0.481 0.589 16.9034 6.8993 0.1963 -0.0684 -0.628110 0.308841 12.15 
0.918 3 -4.392148 1.316206 -10.752612 30.311584 -3.456116 35.041809 -70.01 -69.99 0.367 0.697 11.2689 6.1189 0.1979 -0.0696 -0.638492 0.387789 11.23 
0.925 3 -1.275449 -1.273052 -4.682241 28.556824 -13.343811 50.712585 69.99 70.01 -0.659 -0.602 12.4061 8.0492 0.1995 -0.0708 -0.643683 0.265949 11.72 
0.932 3 -10.062143 2.826606 -19.639999 26.786804 -27.687073 55.122375 69.99 70.01 -0.146 -0.323 10.1674 8.3473 0.2011 -0.0720 -0.648874 0.473462 12.23 
0.939 3 -9.024043 0.584980 -8.252060 36.621094 5.462646 42.671204 69.99 70.01 -0.722 -0.659 15.1940 8.7810 0.2029 -0.0734 -0.651470 0.830053 10.92 
0.946 3 0.409966 -0.719238 -7.890044 28.068542 14.549255 45.646667 -70.01 -69.99 -0.817 -0.804 17.3368 10.5646 0.2050 -0.0750 -0.664447 -0.051913 10.90 
0.953 3 -5.336748 2.900928 -8.801079 24.955750 5.645752 53.375244 -70.01 -69.99 1.286 1.267 8.0016 3.5400 0.2061 -0.0758 -0.672234 0.545093 12.43 
0.960 3 -4.133223 2.320742 -9.601830 33.203125 -8.125305 48.385620 69.99 70.01 0.665 0.697 7.8166 3.0388 0.2070 -0.0766 -0.677425 0.406488 12.29 
0.967 3 -5.835420 0.896650 -3.740039 34.141541 -21.743774 54.916382 69.99 70.01 -0.633 -0.703 12.7573 7.8166 0.2084 -0.0777 -0.685212 1.000831 12.17 
0.974 3 -8.803476 1.090845 -12.569887 33.294678 10.871887 56.610107 69.99 70.01 1.039 0.982 9.2621 4.7117 0.2098 -0.0789 -0.687807 0.610969 12.43 
0.981 3 -3.471523 0.604160 -6.012832 34.248352 9.773254 58.456421 69.99 70.01 1.311 1.007 18.2739 15.7241 0.2120 -0.0807 -0.692998 0.523600 12.28 
0.988 3 -7.408154 -2.018662 -16.194849 34.736633 11.650085 50.849915 69.99 70.01 0.089 0.469 14.5405 9.2621 0.2146 -0.0829 -0.700785 0.429023 10.81 
0.995 3 -3.267739 -1.050088 -5.499775 30.929565 14.907837 42.953491 69.99 70.01 -1.280 -0.957 11.1758 4.8468 0.2160 -0.0840 -0.708571 0.536113 10.92 
1.002 3 -2.330332 0.107886 -8.060264 33.874512 -15.487671 53.993225 -70.01 -69.99 1.349 1.229 7.5546 2.8290 0.2171 -0.0850 -0.716358 0.281440 10.55 
1.009 3 -5.705957 -0.664097 -6.624184 35.240173 -23.857117 46.646118 69.99 70.01 -0.836 -0.716 10.4021 6.8993 0.2183 -0.0860 -0.721549 0.711065 10.62 
1.016 3 -11.421504 0.127065 -14.341611 35.049438 -12.474060 53.009033 69.99 70.01 -1.400 -1.254 10.1674 7.1172 0.2196 -0.0872 -0.724145 0.672535 10.71 
1.023 3 -4.488047 0.632930 -1.836455 29.281616 13.648987 56.343079 69.99 70.01 -0.564 -0.475 12.1826 9.7991 0.2210 -0.0884 -0.726740 1.182395 12.47 
1.030 3 -4.900410 0.628135 -6.919072 35.820007 12.245178 55.274963 69.99 70.01 -0.532 -0.500 15.0252 11.9670 0.2228 -0.0900 -0.731931 0.616239 11.85 
1.037 3 -5.993652 -0.522646 -7.988339 32.272339 25.588989 47.157288 -70.01 -69.99 0.190 0.348 15.1940 9.3908 0.2244 -0.0915 -0.739718 0.643693 12.36 
1.044 3 -5.403877 -1.385732 -7.803735 26.237488 33.248901 37.216187 -70.01 -69.99 0.038 0.177 15.0252 6.2031 0.2262 -0.0932 -0.750100 0.605657 12.07 
1.051 3 -5.195298 0.510659 -7.408154 27.275085 42.503357 45.410156 69.99 70.01 0.893 0.982 12.2934 4.0609 0.2275 -0.0944 -0.763078 0.611594 11.17 
1.058 3 -4.943564 0.366812 -7.336230 35.316467 38.665771 49.026489 69.99 70.01 -0.880 -0.595 18.5242 14.3858 0.2298 -0.0966 -0.768269 0.592963 12.47 
1.065 3 -4.118838 -3.948618 -11.809893 38.688660 58.059692 54.534912 -70.01 -69.99 0.842 0.798 13.2575 10.6478 0.2317 -0.0985 -0.770864 0.335571 12.02 
1.072 3 -4.236313 -1.112422 -3.378022 26.710510 68.824768 48.347473 69.99 70.01 -1.083 -0.893 10.6478 5.6345 0.2333 -0.1000 -0.778651 0.897645 11.03 
1.079 3 -4.372969 1.644658 -8.309599 25.039673 54.664612 56.449890 -70.01 -69.99 1.508 1.444 9.6591 5.5879 0.2344 -0.1011 -0.783842 0.484430 11.80 
1.086 3 -2.905723 1.002139 -3.073545 32.875061 51.277161 48.904419 69.99 70.01 -0.760 -0.640 15.7241 13.0026 0.2363 -0.1030 -0.791629 0.757338 12.29 
1.093 3 -5.058642 -3.051968 -5.113784 28.358459 53.092957 48.957825 69.99 70.01 0.855 0.804 15.9091 9.4564 0.2382 -0.1050 -0.796820 0.779978 12.17 
1.100 3 -3.533857 0.728828 -17.232948 26.611328 54.634094 44.883728 69.99 70.01 -0.678 -0.418 17.1173 10.3227 0.2402 -0.1070 -0.807202 0.202260 11.96 
1.107 3 -2.745093 -0.759995 -9.378867 28.320312 58.761597 58.776855 69.99 70.01 0.469 0.551 10.4021 5.9835 0.2415 -0.1083 -0.814988 0.284736 11.25 
1.114 3 -3.773603 2.886543 -4.665459 28.167725 45.959473 58.006287 69.99 70.01 0.336 0.355 13.3888 8.6132 0.2431 -0.1101 -0.820179 0.680107 12.50 
1.121 3 -3.394804 -0.170220 -7.954775 38.307190 34.393311 56.076050 69.99 70.01 -0.006 0.013 12.6380 10.0916 0.2446 -0.1117 -0.822775 0.403363 11.94 
1.128 3 -3.231777 -1.632671 -8.364741 23.506165 37.612915 48.454285 -70.01 -69.99 0.095 0.196 15.3667 10.6478 0.2464 -0.1136 -0.830562 0.368690 11.23 
1.135 3 -4.886025 0.510659 -13.572026 24.673462 40.534973 43.487549 -70.01 -69.99 0.215 0.367 10.2445 4.9716 0.2476 -0.1150 -0.838348 0.345562 12.24 
1.142 3 -3.766411 0.606558 -7.094087 25.520325 27.168274 50.796509 69.99 70.01 0.114 0.209 12.0738 9.1370 0.2489 -0.1165 -0.843539 0.488079 12.04 
1.149 3 -3.886284 -0.815137 -8.789091 25.665283 22.186279 55.335999 -70.01 -69.99 1.970 1.717 15.1940 13.2575 0.2505 -0.1183 -0.848730 0.416325 11.85 
1.156 3 -4.914795 -0.414761 -17.642914 28.121948 33.050537 46.478271 -70.01 -69.99 -0.247 -0.279 16.0984 10.8182 0.2527 -0.1207 -0.853922 0.271683 11.69 
1.163 3 -6.070371 -3.272534 -12.344526 21.720886 48.126221 53.901672 69.99 70.01 -0.918 -0.811 11.0842 5.9835 0.2538 -0.1221 -0.861708 0.457023 11.85 
1.170 3 -3.042378 3.008813 -6.796802 20.423889 36.643982 56.137085 69.99 70.01 -0.576 -0.500 11.1758 4.6153 0.2549 -0.1233 -0.866899 0.420872 12.20 
1.177 3 -4.854858 -0.604160 -4.981924 32.295227 38.253784 54.321289 69.99 70.01 0.215 0.348 13.9409 10.9941 0.2562 -0.1248 -0.872090 0.772482 12.31 
1.184 3 -5.658008 1.778916 -10.810151 23.071289 36.964417 59.448242 69.99 70.01 0.108 0.082 17.5619 13.9409 0.2581 -0.1272 -0.874686 0.482190 11.34 
1.191 3 -5.085014 -1.742954 -13.025405 26.908875 51.986694 40.046692 69.99 70.01 0.545 0.570 17.7930 9.0151 0.2600 -0.1295 -0.887663 0.372196 12.15 
1.198 3 -5.085014 -1.006934 -8.062661 27.687073 71.258545 46.516418 69.99 70.01 -0.887 -0.690 11.7589 8.0974 0.2614 -0.1312 -0.895450 0.562678 12.18 
1.205 3 -3.363638 -0.831919 -7.587964 18.486023 66.398621 62.080383 -70.01 -69.99 0.957 0.912 12.7573 10.1674 0.2627 -0.1328 -0.900641 0.417257 11.90 
1.212 3 -4.315430 2.802632 -6.494721 20.721436 67.863464 60.264587 69.99 70.01 0.963 0.874 16.9034 13.3888 0.2646 -0.1351 -0.903237 0.586468 11.93 
1.219 3 -2.526924 1.560747 -15.020092 33.790588 83.999634 52.337646 69.99 70.01 0.513 0.494 11.5579 8.6684 0.2663 -0.1374 -0.908428 0.166675 10.79 
1.226 3 -6.295732 -1.812480 -13.521679 17.799377 82.725525 61.485291 -70.01 -69.99 0.386 0.209 9.5906 5.8794 0.2675 -0.1390 -0.918810 0.435753 11.17 
1.233 3 -2.577271 1.949136 -7.142036 23.666382 70.236206 61.592102 69.99 70.01 -0.437 -0.412 16.4911 12.2934 0.2690 -0.1409 -0.924001 0.346316 10.74 
1.240 3 -4.372969 0.381196 -8.870605 34.934998 69.946289 59.585571 -70.01 -69.99 1.280 1.128 13.3888 9.8706 0.2704 -0.1428 -0.929192 0.458010 12.12 
1.247 3 -5.847407 -3.226982 -9.692934 15.914917 77.415466 57.533264 69.99 70.01 -0.944 -0.741 12.0738 8.1956 0.2719 -0.1447 -0.939574 0.542817 11.23 
1.254 3 -2.814619 1.543965 -8.793886 24.787903 69.274902 66.795349 69.99 70.01 0.190 0.659 11.5579 7.7717 0.2731 -0.1464 -0.944765 0.309762 11.11 
1.261 3 -4.051709 -1.076460 -8.944926 23.460388 75.553894 58.868408 -70.01 -69.99 0.443 0.443 11.9670 9.3908 0.2745 -0.1483 -0.949957 0.425314 11.12 
1.268 3 -4.428110 -0.541826 -6.432387 15.075684 84.449768 51.109314 69.99 70.01 0.063 0.177 9.1991 5.2211 0.2755 -0.1498 -0.952552 0.602904 11.17 
1.275 3 -3.706475 -0.194194 -8.551743 23.567200 75.637817 54.313660 69.99 70.01 -0.165 -0.127 8.3473 7.7273 0.2766 -0.1513 -0.955148 0.408979 11.50 
1.282 3 -3.006416 0.558608 -9.067197 16.136169 70.655823 59.730530 -70.01 -69.99 1.970 1.793 11.7589 10.1674 0.2776 -0.1528 -0.957743 0.320163 11.07 
1.289 3 -3.401997 -0.664097 -8.971298 13.954163 84.968567 42.518616 69.99 70.01 0.171 0.342 15.7241 11.7589 0.2792 -0.1551 -0.962934 0.362456 11.15 
1.296 3 -3.461933 -1.690210 -14.351201 12.779236 97.694397 34.149170 -70.01 -69.99 0.507 0.513 17.7930 9.1370 0.2810 -0.1577 -0.973316 0.236707 12.06 
1.303 3 -6.000844 1.126807 -11.610903 8.293152 103.805542 33.020020 69.99 70.01 -1.698 -1.140 12.0738 4.6791 0.2822 -0.1594 -0.983699 0.477020 11.07 
1.310 3 -1.450464 -1.330591 -7.597553 13.328552 101.837158 35.644531 -70.01 -69.99 1.077 1.153 9.8706 3.9890 0.2829 -0.1606 -0.991485 0.188642 11.07 
1.317 3 -3.787988 0.690469 -7.820518 10.154724 88.294983 51.101685 -70.01 -69.99 0.336 0.912 12.0738 9.7991 0.2840 -0.1623 -0.996676 0.451062 12.24 
1.324 3 -3.116699 -0.400376 -10.078925 11.878967 89.019775 46.386719 -70.01 -69.99 -0.437 -0.405 9.7286 9.5906 0.2851 -0.1639 -0.996676 0.299902 11.23 
1.331 3 -3.996567 -0.695264 -9.736089 9.963989 83.595276 52.864075 69.99 70.01 -0.272 -0.215 9.9432 9.7286 0.2862 -0.1656 -0.996676 0.389517 12.06 
1.338 3 -2.474180 0.292490 -9.342905 8.346558 93.009949 48.522949 69.99 70.01 -0.437 -0.418 8.2455 6.8296 0.2872 -0.1671 -0.999272 0.258877 11.15 
1.345 3 -3.351650 -0.184604 -11.085859 8.323669 91.453552 45.394897 69.99 70.01 0.171 0.177 7.9080 5.4970 0.2880 -0.1683 -1.001867 0.293598 11.93 
1.352 3 -2.888940 -0.992549 -9.498740 11.878967 88.722229 42.015076 69.99 70.01 0.792 0.703 9.5230 7.2703 0.2888 -0.1697 -1.007058 0.295250 11.96 
1.359 3 -1.165166 -1.205923 -9.122338 6.210327 91.743469 48.255920 -70.01 -69.99 1.970 1.546 16.0984 12.1826 0.2903 -0.1721 -1.012249 0.127039 11.91 
1.366 3 -2.349512 0.707251 -6.489926 2.792358 113.761902 26.123047 69.99 70.01 -0.190 -0.101 20.8041 11.6575 0.2921 -0.1750 -1.020035 0.347347 11.93 
1.373 3 -2.327935 -0.290093 -11.471850 13.237000 136.810303 16.807556 69.99 70.01 -1.881 -1.527 17.1173 8.2455 0.2937 -0.1776 -1.033013 0.200207 12.18 
1.380 3 -0.805547 -3.627358 -12.394873 4.417419 149.414062 38.734436 63.00 63.03 0.127 0.152 10.4827 4.0127 0.2944 -0.1788 -1.040799 0.064899 12.13 
1.387 3 -0.774380 1.311411 -8.110610 -1.976013 141.845703 37.750244 -70.01 -69.99 1.970 1.767 12.6380 9.9432 0.2954 -0.1805 -1.045990 0.095189 11.03 
1.394 3 -1.985098 0.057539 -10.685483 13.175964 142.807007 41.130066 69.99 70.01 0.070 0.044 14.6986 13.1288 0.2968 -0.1830 -1.051181 0.183681 11.18 
1.401 3 -2.342319 -0.750405 -14.044326 4.531860 148.857117 53.649902 -70.01 -69.99 0.203 0.101 8.3473 7.7273 0.2980 -0.1850 -1.051181 0.165259 11.39 
1.408 3 -0.709648 0.117476 -7.705439 2.098083 151.329041 49.942017 69.99 70.01 -0.792 -0.532 14.2344 14.3858 0.2992 -0.1871 -1.051181 0.091838 10.74 
1.415 3 -1.145986 -1.651851 -7.806133 11.390686 159.271240 40.649414 69.99 70.01 -0.418 -0.405 9.0756 7.4711 0.3003 -0.1891 -1.053776 0.145765 11.94 
1.422 3 -1.174756 -0.632930 -9.115147 -3.318787 160.842896 45.883179 45.72 45.75 0.266 0.203 9.2621 6.5644 0.3010 -0.1903 -1.056371 0.128173 11.93 
1.429 3 -0.441133 0.716841 -10.026181 1.029968 159.469604 40.878296 14.91 14.94 0.222 0.203 10.8182 8.0974 0.3020 -0.1920 -1.061562 0.116708 11.91 
1.436 3 -1.186743 -1.781313 -9.306943 3.837585 161.010742 40.550232 69.99 70.01 -1.387 -1.121 8.1462 9.5906 0.3029 -0.1936 -1.058967 0.126827 12.72 
1.443 3 0.107886 -0.455518 -9.182275 -5.119324 162.536621 42.854309 -70.01 -69.99 -0.912 -0.899 6.3786 9.0756 0.3036 -0.1948 -1.056371 -0.011749 11.74 
1.450 3 0.112681 0.795957 -10.404980 1.174927 162.841797 42.373657 8.80 8.83 1.090 1.343 10.1674 13.5227 0.3045 -0.1964 -1.053776 0.115929 11.28 
1.457 3 -0.697661 -1.172358 -9.541894 -2.037048 166.519165 42.877197 -70.01 -69.99 -2.261 -1.862 7.0066 8.3473 0.3057 -0.1985 -1.053776 0.072986 11.33 
1.464 3 -0.477095 0.222964 -10.421762 -5.004883 173.881531 43.136597 -70.01 -69.99 0.374 0.171 -7.1549 -8.2961 0.3053 -0.1978 -1.053776 0.045747 10.62 
1.471 3 1.932353 1.994687 -13.852529 4.234314 158.958435 64.498901 -70.01 -69.99 -2.572 -1.995 -11.1758 -8.0016 0.3044 -0.1963 -1.051181 -0.138600 10.95 
1.478 3 -4.020542 -7.501655 -12.639414 10.025024 107.223511 45.356750 -24.40 -24.37 0.317 0.133 -10.3227 -5.6345 0.3033 -0.1943 -1.043394 0.307974 11.91 
1.485 3 -1.718979 -0.623340 -3.603384 -21.492004 83.702087 60.668945 69.99 70.01 0.576 0.177 -6.6614 -3.6061 0.3027 -0.1935 -1.035608 0.445116 10.84 
1.492 3 1.321001 2.258408 -10.939614 -1.113892 68.489075 51.620483 -70.01 -69.99 -2.629 -1.995 -1.9741 -1.3349 0.3025 -0.1931 -1.035608 -0.014710 10.49 
1.499 3 -0.112681 -2.148125 -9.105556 -9.948730 39.321899 45.257568 -70.01 -69.99 0.209 0.146 -6.7953 -4.3066 0.3020 -0.1923 -1.033013 0.012374 12.89 
1.506 3 -0.697661 -0.908638 -10.762202 -5.706787 17.288208 39.703369 -70.01 -69.99 0.285 0.184 -3.9540 -2.3116 0.3017 -0.1917 -1.030417 0.064735 11.28 
1.513 3 -0.429145 -0.695264 -11.752353 -1.075745 13.282776 26.023865 -70.02 -69.98 -2.382 -1.995 -1.6798 -2.7541 0.3014 -0.1912 -1.033013 -0.015065 11.09 
1.520 3 0.769585 -0.330850 -7.906826 -6.523132 0.129700 19.882202 -70.02 -69.98 0.868 0.899 -7.6833 -11.7589 0.3004 -0.1895 -1.043394 -0.097026 10.63 
1.527 3 -1.834058 0.632930 -13.353857 0.213623 -18.692017 24.291992 -70.02 -69.98 -1.318 -1.140 -2.6360 -7.1549 0.2999 -0.1886 -1.051181 0.098069 10.81 
1.534 3 1.215513 -0.409966 -9.549087 -7.942200 -12.229919 34.164429 -70.02 -69.98 -0.976 -0.988 -3.4585 -7.0799 0.2994 -0.1877 -1.053776 -0.126610 11.12 
1.541 3 -1.153179 2.550898 -11.351977 -4.875183 -17.486572 38.841248 -70.02 -69.98 -1.020 -1.026 -5.9310 -6.6614 0.2986 -0.1863 -1.053776 0.101237 12.29 
1.548 3 0.608955 -1.577529 -8.024302 1.502991 -21.057129 31.600952 -64.62 -64.58 -0.944 -0.773 -8.1956 -10.3227 0.2978 -0.1849 -1.058967 -0.067915 12.47 
1.555 3 -1.673428 -1.292231 -12.263012 -4.463196 -41.412354 26.214600 69.98 70.02 0.291 0.424 -9.1991 -11.7589 0.2966 -0.1828 -1.064158 0.135624 12.39 
1.562 3 2.256011 -1.174756 -6.720083 -3.898621 -43.006897 23.056030 -70.02 -69.98 -1.666 -1.603 -5.1811 -8.2455 0.2959 -0.1816 -1.066753 -0.323890 11.20 
1.569 3 -0.630532 0.966177 -13.411396 -6.629944 -43.525696 22.209167 -70.02 -69.98 -0.500 -0.564 -8.6684 -12.0738 0.2949 -0.1797 -1.069349 0.046980 11.66 
1.576 3 0.779175 0.431543 -8.108212 0.160217 -44.349670 21.461487 -26.47 -26.43 0.513 0.380 -8.1956 -10.4827 0.2937 -0.1775 -1.074539 0.098217 11.68 
1.583 3 0.105488 -2.102573 -12.658593 -6.538391 -42.304993 20.469666 69.98 70.02 -1.419 -1.064 -4.5840 -8.2961 0.2931 -0.1763 -1.077135 -0.008333 11.12 
1.590 3 1.671030 2.929697 -9.184672 -4.966736 -26.023865 20.645142 -70.02 -69.98 0.792 0.684 -8.5048 -10.5646 0.2924 -0.1751 -1.079730 -0.179968 11.20 
1.597 3 -0.656904 -0.601763 -13.255561 3.662109 -16.586304 21.736145 -70.02 -69.98 -0.709 -0.608 -7.5546 -9.6591 0.2915 -0.1735 -1.082326 0.049516 11.20 
1.604 3 0.460312 -1.088447 -9.062402 -5.233765 -1.808167 17.921448 -70.02 -69.98 -0.298 -0.253 -15.5433 -18.0303 0.2902 -0.1710 -1.087517 -0.050750 10.93 
1.611 3 0.342837 2.829004 -7.444116 0.495911 -14.122009 25.527954 69.98 70.02 -0.950 -0.950 -17.5619 -20.1831 0.2884 -0.1674 -1.087517 -0.077952 11.07 
1.618 3 -0.946997 -2.181690 -6.401220 -0.701904 -44.029236 11.810303 69.98 70.02 1.235 1.083 -8.8965 -11.8620 0.2870 -0.1649 -1.092707 -0.087586 11.56 
1.625 3 1.409707 -0.968574 -11.560556 -9.765625 -47.225952 10.070801 -70.02 -69.98 -0.988 -0.671 -3.2743 -4.3066 0.2866 -0.1640 -1.095303 -0.121342 12.36 
1.632 3 -0.455518 4.245903 -9.474766 1.373291 -34.088135 14.175415 -70.02 -69.98 -1.850 -1.995 -3.7459 -5.5879 0.2861 -0.1631 -1.097898 -0.083694 10.98 
1.639 3 0.608955 -1.227500 -11.565351 1.541138 -9.864807 -0.030518 -70.02 -69.98 0.304 0.304 -14.3858 -17.1173 0.2848 -0.1604 -1.100494 -0.077691 12.48 
1.646 3 0.671289 -1.766929 -13.349062 2.502441 -4.745483 -7.064819 -57.07 -57.04 -0.861 -0.589 -15.0252 -15.9091 0.2832 -0.1574 -1.103089 -0.050245 11.41 
1.653 3 0.457915 0.491479 -9.978232 3.112793 -12.062073 18.020630 -70.02 -69.98 -1.774 -1.995 -19.8863 -15.0252 0.2818 -0.1545 -1.097898 -0.045859 10.95 
1.660 3 -0.441133 -3.358843 -10.613559 1.136780 -40.252686 10.917664 -70.02 -69.98 -0.177 -0.108 -12.5210 -5.9051 0.2803 -0.1517 -1.092707 -0.122273 10.90 
1.667 3 -0.493877 0.822329 -13.006226 -3.707886 -35.995483 -6.713867 -70.02 -69.98 1.001 0.424 -14.5405 -12.7573 0.2792 -0.1495 -1.087517 0.037954 12.09 
1.674 3 -0.189399 -0.131860 -6.444375 9.178162 -24.017334 -13.137817 69.98 70.02 -1.647 -1.299 -12.5210 -13.3888 0.2780 -0.1474 -1.087517 0.029381 12.20 
1.681 3 1.366553 -0.724033 -12.303769 0.480652 -15.991211 -17.860413 -38.43 -38.40 -0.171 -0.013 -13.5227 -15.7241 0.2766 -0.1447 -1.090112 0.046760 11.96 
1.688 3 -0.788765 1.057280 -8.096226 -0.724792 -17.715454 -17.852783 -70.02 -69.98 -1.235 -0.976 -19.8863 -20.1831 0.2750 -0.1415 -1.090112 -0.094226 10.98 
1.695 3 -0.127065 -2.632412 -9.350098 8.811951 -53.085327 -24.421692 -70.02 -69.98 0.735 0.500 -10.0168 -10.7323 0.2735 -0.1387 -1.090112 0.013589 12.18 
1.702 3 0.510659 -1.023716 -10.882075 -5.126953 -43.762207 -27.221680 56.20 56.23 0.519 0.595 -4.0487 -5.2617 0.2729 -0.1376 -1.090112 -0.046892 12.78 
1.709 3 0.800752 -0.067129 -12.121562 8.338928 -25.329590 -39.978027 -70.02 -69.98 -0.038 -0.025 4.9173 2.2842 0.2732 -0.1381 -1.092707 -0.065964 12.61 
1.716 3 1.402515 0.445928 -10.143657 7.049561 3.753662 -45.715332 -70.02 -69.98 -0.234 -0.228 3.2351 1.2674 0.2734 -0.1385 -1.097898 -0.137394 11.28 
1.723 3 0.309272 -0.668892 -11.371157 4.463196 34.042358 -69.068909 69.98 70.02 -2.179 -1.514 -2.9207 -9.1991 0.2731 -0.1379 -1.105685 -0.027191 11.60 
1.730 3 -0.304478 0.479492 -11.188950 6.324768 51.292419 -66.925049 -70.02 -69.98 -0.310 -0.285 -12.6380 -16.9034 0.2719 -0.1356 -1.113471 0.027206 11.28 
1.737 3 0.968574 2.968056 -6.607402 8.110046 52.474976 -54.130554 -70.02 -69.98 1.653 1.273 -15.9091 -15.7241 0.2704 -0.1325 -1.110875 -0.145553 10.58 
1.744 3 -2.929697 -1.141191 -11.538980 7.171631 35.446167 -41.740417 -56.13 -56.09 -0.893 -0.836 -11.4599 -7.4301 0.2694 -0.1306 -1.108280 0.248642 12.48 
1.751 3 0.177412 0.795957 -9.968642 3.601074 39.176941 -36.109924 -6.18 -6.14 -0.095 -0.222 -19.3181 -12.0738 0.2682 -0.1280 -1.097898 -0.017795 11.99 
1.758 3 -0.381196 0.870278 -11.627686 4.730225 34.423828 -22.377014 69.98 70.02 -0.880 -0.976 -15.1940 -5.7543 0.2671 -0.1259 -1.087517 0.032772 11.41 
1.765 3 1.062075 -0.637725 -6.576235 2.258301 47.172546 -33.889771 -70.02 -69.98 1.052 0.766 -14.5405 -9.0756 0.2659 -0.1238 -1.077135 -0.160119 11.18 
1.772 3 -0.608955 0.347632 -12.579477 5.516052 57.144165 -35.926819 69.98 70.02 0.082 -0.171 -18.2739 -15.1940 0.2645 -0.1211 -1.074539 0.048371 11.98 
1.779 3 1.181948 1.563144 -9.383662 4.417419 55.747986 -27.717590 -70.02 -69.98 -0.709 -0.963 -15.5433 -10.4827 0.2631 -0.1186 -1.069349 -0.125298 11.00 
1.786 3 -1.323398 0.788765 -12.135947 3.509521 49.499512 -17.105103 69.98 70.02 1.058 0.760 -21.8108 -12.2934 0.2616 -0.1158 -1.058967 0.108619 10.84 
1.793 3 1.325796 -1.201128 -8.359946 4.287720 56.777954 -16.349792 -70.02 -69.98 -0.386 -0.760 -12.4061 -4.6791 0.2606 -0.1141 -1.043394 -0.157279 11.63 
1.800 3 -0.033564 0.177412 -10.750215 0.946045 66.909790 -20.263672 -70.02 -69.98 -1.026 -1.064 -13.6593 -6.7277 0.2594 -0.1122 -1.035608 -0.109365 11.07 
1.807 3 0.222964 -0.213374 -9.594639 5.264282 79.193115 -29.869080 69.98 70.02 -0.481 -0.741 -14.6986 -10.7323 0.2581 -0.1099 -1.027822 -0.023234 12.15 
1.814 3 0.673687 -1.059678 -10.208388 6.896973 92.483521 -32.524109 -70.02 -69.98 -0.057 -0.228 -18.2739 -16.0984 0.2564 -0.1072 -1.022631 -0.065898 11.23 
1.821 3 1.781313 2.116958 -8.062661 3.707886 92.414856 -22.178650 -70.02 -69.98 -0.133 -0.418 -19.0460 -15.7241 0.2544 -0.1039 -1.020035 -0.217441 11.34 
1.828 3 0.208579 0.395581 -9.012055 10.818481 77.400208 -15.663147 -70.02 -69.98 0.184 -0.171 -19.3181 -14.3858 0.2525 -0.1008 -1.014844 -0.023140 11.17 
1.835 3 -0.105488 -2.773862 -7.329038 2.655029 57.098389 -18.203735 69.98 70.02 -1.020 -1.134 -13.7987 -10.0168 0.2509 -0.0983 -1.007058 0.014392 12.28 
1.842 3 2.045034 0.604160 -12.404463 0.907898 51.330566 -30.967712 -70.02 -69.98 1.007 0.456 -11.8620 -13.1288 0.2497 -0.0962 -1.007058 0.054477 12.17 
1.849 3 2.387871 1.349770 -7.571181 8.598328 62.858582 -26.870728 69.98 70.02 -0.893 -0.779 -15.0252 -13.1288 0.2483 -0.0940 -1.004463 -0.305515 11.03 
1.856 3 -0.393184 -0.359619 -11.054692 2.761841 60.951233 -20.614624 69.98 70.02 0.095 -0.025 -11.7589 -7.3493 0.2471 -0.0922 -1.001867 0.035552 11.79 
1.863 3 3.061558 1.718979 -9.350098 2.914429 80.123901 -24.284363 -70.02 -69.98 1.552 1.286 -8.5587 -7.1549 0.2460 -0.0905 -0.996676 -0.316434 11.04 
1.870 3 1.169961 -0.644917 -9.342905 10.177612 93.238831 -32.394409 -70.02 -69.98 -0.659 -0.792 -13.3888 -12.0738 0.2449 -0.0888 -0.996676 -0.124576 10.68 
1.877 3 1.601504 0.330850 -8.971298 8.087158 104.743958 -30.769348 -70.02 -69.98 -0.887 -0.716 -13.6593 -13.6593 0.2434 -0.0864 -0.996676 -0.176653 11.94 
1.884 3 1.241885 0.599365 -13.277139 11.924744 108.085632 -32.295227 69.98 70.02 -0.038 -0.044 -17.7930 -16.0984 0.2415 -0.0835 -0.994081 -0.093264 12.09 
1.891 3 1.162768 -2.999223 -12.761684 16.380310 91.125488 -29.815674 69.98 70.02 -0.481 -0.583 -13.0026 -11.3636 0.2398 -0.0810 -0.991485 -0.090863 12.02 
1.898 3 3.207803 -0.175015 -12.078408 0.083923 91.415405 -27.801514 -70.02 -69.98 -0.703 -0.779 -9.1991 -5.5195 0.2390 -0.0797 -0.986294 -0.164328 11.83 
1.905 3 1.925161 3.977388 -9.570663 6.271362 104.934692 -29.830933 -70.02 -69.98 -0.621 -0.671 -16.0984 -14.2344 0.2374 -0.0773 -0.981103 -0.198503 11.07 
1.912 3 2.059419 -0.275708 -7.995532 19.195557 107.093811 -36.979675 69.98 70.02 -0.684 -0.754 -18.0303 -18.7815 0.2353 -0.0742 -0.983699 -0.252092 12.06 
1.919 3 3.449946 -3.622563 -15.331762 6.217957 84.724426 -30.578613 -70.02 -69.98 1.128 0.868 -14.0861 -10.0168 0.2338 -0.0720 -0.981103 -0.221333 11.47 
1.926 3 4.706216 1.673428 -9.997412 3.234863 101.173401 -35.293579 -70.02 -69.98 -1.577 -1.628 -14.3858 -14.0861 0.2323 -0.0696 -0.981103 -0.439970 10.90 
1.933 3 1.587119 1.987495 -8.995274 19.302368 90.316772 -27.984619 -70.02 -69.98 0.735 0.576 -19.8863 -17.7930 0.2301 -0.0665 -0.978507 -0.174642 10.98 
1.940 3 2.939287 -2.946479 -12.586670 19.584656 77.415466 -36.994934 69.98 70.02 -0.266 -0.342 -13.1288 -12.2934 0.2284 -0.0640 -0.975912 -0.229413 11.83 
1.947 3 4.806909 -0.057539 -10.345043 6.126404 88.935852 -45.219421 -70.02 -69.98 0.424 0.272 -10.7323 -9.7991 0.2272 -0.0621 -0.973316 -0.434977 11.66 
1.954 3 4.814101 2.704336 -10.939614 20.507812 100.891113 -38.513184 -70.02 -69.98 -1.280 -1.299 -16.2924 -14.8601 0.2256 -0.0598 -0.973316 -0.414558 12.29 
1.961 3 3.747231 -1.167563 -11.016333 14.610291 93.894958 -31.921387 -70.02 -69.98 -0.887 -0.830 -22.9198 -18.7815 0.2232 -0.0563 -0.970721 -0.327875 12.20 
1.968 3 2.977646 -0.625737 -12.042446 16.494751 78.330994 -37.322998 69.98 70.02 -0.108 -0.393 -16.6947 -14.6986 0.2212 -0.0533 -0.965530 -0.242401 12.56 
1.975 3 3.984580 -0.467505 -11.344785 8.804321 78.865051 -35.949707 69.98 70.02 -0.120 -0.203 -13.0026 -8.5048 0.2199 -0.0515 -0.962934 -0.337766 12.77 
1.982 3 4.689434 3.574614 -2.948877 10.543823 88.424683 -44.837952 -70.02 -69.98 -0.785 -0.938 -14.5405 -12.7573 0.2185 -0.0495 -0.957743 -1.009444 12.04 
1.989 3 4.214736 1.814878 -7.652695 25.321960 87.646484 -39.703369 69.98 70.02 -1.552 -1.539 -16.4911 -14.5405 0.2166 -0.0467 -0.955148 -0.503420 12.55 
1.996 3 5.382299 -0.783970 -8.580512 19.126892 88.775635 -40.321350 -70.02 -69.98 -0.139 -0.228 -22.9198 -18.7815 0.2142 -0.0435 -0.949956 -0.560230 11.96 
2.003 3 6.453965 -0.508262 -12.975059 23.696899 68.466187 -36.590576 69.98 70.02 -0.538 -0.741 -19.5981 -15.3667 0.2120 -0.0404 -0.947361 -0.461576 11.87 
2.010 3 5.677187 0.656904 -9.616216 19.325256 53.176880 -36.544800 -70.02 -69.98 -1.786 -1.875 -16.6947 -12.1826 0.2102 -0.0379 -0.939574 -0.533313 11.63 
2.017 3 6.053589 0.668892 -3.907861 21.842957 41.442871 -43.426514 -70.02 -69.98 -0.165 -0.165 -26.0052 -22.1684 0.2075 -0.0342 -0.931788 -0.997560 12.21 
2.024 3 6.923867 1.635068 -7.595156 27.442932 13.816833 -39.878845 -70.02 -69.98 1.318 0.868 -21.4646 -17.1173 0.2049 -0.0306 -0.926597 -0.739196 11.53 
2.031 3 5.751509 -0.690469 -11.009140 27.656555 3.890991 -47.721863 69.98 70.02 -0.627 -0.709 -18.0303 -15.1940 0.2026 -0.0276 -0.924001 -0.481430 11.33 
2.038 3 5.811445 1.613491 -6.444375 16.868591 1.167297 -42.877197 -70.02 -69.98 -0.127 -0.165 -22.5378 -17.1173 0.2004 -0.0247 -0.918810 -0.733801 11.15 
2.045 3 7.631118 1.608696 -5.044258 31.723022 -16.746521 -40.771484 -65.93 -65.89 -0.329 -0.538 -21.8108 -17.7930 0.1977 -0.0212 -0.913619 -0.986719 12.07 
2.052 3 5.269619 -0.822329 -12.418847 20.515442 -35.804749 -39.810181 69.98 70.02 -0.589 -0.760 -21.1292 -17.5619 0.1952 -0.0180 -0.908428 -0.401298 12.06 
2.059 3 6.955034 -0.755200 -12.855186 18.569946 -40.084839 -40.260315 -70.02 -69.98 -0.570 -0.836 -21.1292 -17.7930 0.1927 -0.0149 -0.903237 -0.495930 11.20 
2.066 3 5.595674 1.709390 -3.186225 25.398254 -41.038513 -41.427612 -70.02 -69.98 -1.178 -1.197 -21.4646 -19.3181 0.1900 -0.0114 -0.898046 -1.053174 11.12 
2.073 3 5.940908 0.462710 -8.189726 22.491455 -63.003540 -41.648865 -70.02 -69.98 -0.842 -0.861 -26.0052 -21.8108 0.1871 -0.0078 -0.895450 -0.627577 11.17 
2.080 3 4.166787 -1.078857 -9.383662 18.547058 -81.901550 -39.215088 69.98 70.02 0.234 0.038 -22.9198 -18.2739 0.1843 -0.0043 -0.890259 -0.417892 11.68 
2.087 3 7.424936 -0.640122 -9.882334 16.593933 -76.126099 -42.259216 -70.02 -69.98 0.367 0.032 -18.2739 -16.0984 0.1819 -0.0014 -0.882472 -0.644355 11.82 
2.094 3 5.013091 1.831660 -6.043999 22.888184 -74.935913 -43.502808 69.98 70.02 -1.147 -1.337 -23.3150 -20.4889 0.1792 0.0019 -0.879877 -0.692432 12.15 
2.101 3 3.469126 -0.654507 -7.261909 22.262573 -86.715698 -43.502808 69.98 70.02 -1.723 -1.628 -25.5145 -20.4889 0.1764 0.0053 -0.874686 -0.445662 11.15 
2.108 3 9.050415 -0.081514 -8.544551 16.731262 -82.603455 -48.126221 -70.02 -69.98 1.888 1.495 -20.8041 -16.0984 0.1734 0.0088 -0.866899 -0.814141 10.76 
2.115 3 5.931318 -1.270654 -13.715874 21.995544 -86.395264 -57.441711 69.98 70.02 -2.008 -1.780 -17.1173 -12.4061 0.1714 0.0111 -0.859113 -0.408157 10.62 
2.122 3 4.396943 2.409448 -8.144175 17.257690 -84.655762 -52.688599 69.98 70.02 -0.171 -0.386 -15.1940 -13.5227 0.1692 0.0137 -0.856517 -0.495047 11.61 
2.129 3 5.353530 -0.321260 -6.312514 25.466919 -83.946228 -56.648254 -70.02 -69.98 1.875 1.590 -15.0252 -12.0738 0.1673 0.0158 -0.856517 -0.703380 11.03 
2.136 3 4.953154 -1.177153 -10.951601 20.729065 -68.870544 -74.401855 69.98 70.02 -1.299 -1.305 -10.4827 -12.0738 0.1658 0.0177 -0.856517 -0.424746 10.88 
2.143 3 5.348735 1.543965 -12.114369 29.151917 -50.964355 -79.071045 69.98 70.02 -2.280 -1.995 -19.3181 -21.4646 0.1635 0.0203 -0.859113 -0.415780 10.85 
2.150 3 3.620166 -0.083911 -7.916416 26.756287 -55.221558 -77.522278 -70.02 -69.98 0.918 0.836 -27.5973 -23.7240 0.1602 0.0241 -0.856517 -0.428907 11.28 
2.157 3 5.027475 0.115078 -9.160698 20.401001 -72.723389 -64.857483 69.98 70.02 0.108 -0.228 -23.3150 -15.3667 0.1575 0.0272 -0.848730 -0.501929 12.69 
2.164 3 6.480337 1.335386 -11.179360 18.585205 -77.476501 -56.434631 69.98 70.02 -1.007 -1.368 -22.5378 -13.5227 0.1549 0.0301 -0.835753 -0.525337 11.88 
2.171 3 5.348735 -0.652109 -9.630600 20.683289 -79.521179 -57.991028 -70.02 -69.98 -1.938 -1.957 -23.3150 -15.5433 0.1524 0.0329 -0.827966 -0.506972 10.84 
2.178 3 4.540791 0.891855 -9.002465 11.573792 -91.033936 -49.095154 69.98 70.02 -1.717 -1.995 -34.6736 -25.0420 0.1486 0.0369 -0.814988 -0.467157 10.90 
2.185 3 6.156680 -1.021318 -5.063437 18.501282 -122.550964 -53.359985 -70.02 -69.98 0.228 0.082 -35.5860 -25.5145 0.1443 0.0414 -0.802011 -0.882527 11.41 
2.192 3 5.166528 0.357222 -8.319189 -0.663757 -137.985229 -42.320251 -70.02 -69.98 -1.539 -1.717 -31.4481 -20.4889 0.1405 0.0453 -0.789033 -0.602445 11.11 
2.199 3 2.908120 1.563144 -8.609282 11.756897 -172.805786 -40.550232 69.98 70.02 -1.508 -1.413 -32.9822 -23.3150 0.1364 0.0494 -0.776055 -0.325755 11.99 
2.206 3 4.339404 -1.527183 -11.215322 5.401611 -188.858032 -42.701721 -70.02 -69.98 -0.690 -0.906 -34.6736 -24.1477 0.1324 0.0533 -0.765673 -0.369178 12.04 
2.213 3 2.805029 0.136655 -10.253941 -3.471375 -211.730957 -33.706665 -70.02 -69.98 -0.500 -0.735 -38.6363 -27.0454 0.1278 0.0576 -0.752696 -0.267023 11.15 
2.220 3 3.776001 1.047690 -9.935078 0.679016 -231.460571 -32.066345 -70.02 -69.98 0.367 -0.234 -39.7726 -29.3972 0.1230 0.0621 -0.739718 -0.403071 11.39 
2.227 3 3.934233 -1.054883 -8.134584 9.674072 -249.122620 -33.058167 -70.02 -69.98 -1.045 -1.204 -37.5630 -28.7717 0.1179 0.0667 -0.729336 -0.450476 11.47 
2.234 3 2.313550 -1.656645 -8.793886 -3.334045 -249.122620 -25.772095 -70.02 -69.98 1.850 1.324 -34.6736 -24.1477 0.1132 0.0708 -0.716358 -0.257257 11.37 
2.241 3 2.306357 0.599365 -5.691572 -6.423950 -249.122620 -31.661987 -70.02 -69.98 -0.652 -0.766 -32.9822 -27.0454 0.1089 0.0745 -0.705976 -0.385001 11.80 
2.248 3 2.184087 -0.433940 -8.808271 0.167847 -249.122620 -36.499023 -70.02 -69.98 -1.242 -1.615 -33.8067 -28.1723 0.1042 0.0785 -0.698189 -0.351344 11.50 
2.255 3 2.984839 0.400376 -10.805356 -8.361816 -249.122620 -27.427673 69.98 70.02 0.475 0.317 -39.7726 -32.1969 0.0989 0.0829 -0.692998 -0.269516 11.18 
2.262 3 0.577788 0.688071 -7.995532 -7.209778 -249.122620 -22.521973 69.98 70.02 0.861 0.507 -33.8067 -24.1477 0.0943 0.0867 -0.682616 -0.072138 11.36 
2.269 3 2.160112 -1.870019 -7.559194 -3.295898 -249.122620 -29.861450 -70.02 -69.98 -0.456 -0.703 -30.7334 -25.5145 0.0897 0.0904 -0.674829 -0.278342 11.18 
2.276 3 2.397461 -1.608696 -10.970781 -4.180908 -249.122620 -29.312134 69.98 70.02 -1.223 -1.254 -34.6736 -30.0504 0.0847 0.0944 -0.669638 -0.215149 11.12 
2.283 3 -0.445928 -0.045552 -9.971040 -12.275696 -249.122620 -15.975952 69.98 70.02 1.552 1.337 -24.1477 -18.5242 0.0806 0.0976 -0.659256 0.044693 11.79 
2.290 3 0.304478 0.275708 -6.420400 -9.605408 -249.122620 -27.511597 -70.02 -69.98 1.970 1.843 -22.5378 -16.9034 0.0776 0.1000 -0.651470 -0.047388 11.36 
2.297 3 -0.433940 0.474697 -6.612197 -9.613037 -249.122620 -30.754089 -70.02 -69.98 0.564 0.456 -19.5981 -13.2575 0.0748 0.1020 -0.643683 0.065533 12.40 
2.304 3 0.719238 -0.930215 -16.439388 -23.529053 -249.122620 -43.647766 69.98 70.02 -0.089 -0.405 -13.0026 -11.6575 0.0722 0.1040 -0.638492 -0.043723 11.17 
2.311 3 0.889458 1.325796 -7.283486 -29.769897 -249.122620 -53.329468 -70.02 -69.98 -1.337 -1.159 -15.0252 -16.2924 0.0697 0.1059 -0.638492 -0.121518 11.23 
2.318 3 -3.162251 -1.687812 -9.462778 -14.694214 -249.122620 -54.306030 69.98 70.02 0.880 0.893 -23.7240 -23.7240 0.0663 0.1084 -0.641087 0.322510 11.14 
2.325 3 -0.925420 -0.915830 -11.999291 -18.737793 -249.122620 -47.019958 -70.02 -69.98 -0.342 -0.241 -17.1173 -15.7241 0.0632 0.1107 -0.638492 0.076971 11.55 
2.332 3 -3.207803 -0.175015 -9.563472 -21.362305 -249.122620 -46.630859 69.98 70.02 1.337 0.842 -17.3368 -15.5433 0.0605 0.1127 -0.635896 0.323630 11.60 
2.339 3 -0.752803 2.239228 -8.875401 -11.962891 -249.122620 -50.498962 -70.02 -69.98 1.970 2.287 -9.2621 -8.2455 0.0585 0.1141 -0.635896 0.084616 11.72 
2.346 3 -5.715547 -0.884663 -11.833867 -16.845703 -249.122620 -52.345276 69.98 70.02 -1.096 -1.039 -4.2127 -3.2902 0.0579 0.1146 -0.630705 0.449941 12.48 
2.353 3 -1.798096 -1.119614 -13.581615 -32.119751 -249.122620 -49.377441 69.98 70.02 1.470 1.254 -4.3622 -6.5327 0.0569 0.1153 -0.630705 0.131626 11.31 
2.360 3 -19.639999 1.910776 -19.639999 -36.827087 24.047852 -58.441162 69.98 70.02 0.906 0.906 3.0944 -2.4148 0.0569 0.1153 -0.635896 0.785398 12.34 
2.367 3 3.327676 -0.695264 -19.639999 -17.250061 110.855103 -67.756653 -70.02 -69.98 0.247 0.393 13.6593 10.4827 0.0583 0.1142 -0.643683 -0.167840 12.45 
2.374 3 0.481890 5.984062 -19.639999 -18.707275 49.263000 -68.305969 -70.02 -69.98 0.849 0.652 11.4599 8.8384 0.0599 0.1130 -0.648874 -0.024531 12.07 
2.381 3 -1.944341 0.266118 7.151626 -1.113892 113.754272 -70.075989 -70.02 -69.98 -0.089 -0.019 6.1747 6.1747 0.0614 0.1119 -0.651470 -0.412526 11.68 
2.388 3 0.882266 1.078857 -9.906308 4.158020 95.458984 -75.332642 69.98 70.02 -1.748 -1.736 -2.1329 -3.3977 0.0612 0.1121 -0.648874 -0.088827 12.12 
2.395 3 0.501069 -0.793560 -0.935010 9.384155 115.425110 -79.925537 -70.02 -69.98 -0.095 -0.241 -13.3888 -10.3227 0.0598 0.1132 -0.646278 -0.491951 11.15 
2.402 3 -10.062143 -2.294370 -6.732070 -60.264587 60.729980 -31.730652 69.98 70.02 -0.646 -0.804 -9.6591 -4.3204 0.0582 0.1144 -0.641087 0.981146 11.18 
2.409 3 1.472041 -3.919848 -12.565092 -100.372314 -4.516602 51.620483 69.98 70.02 1.508 1.026 -7.9545 3.6746 0.0578 0.1146 -0.625514 -0.116622 12.13 
2.416 3 -0.584980 13.373036 -8.491806 -79.597473 4.051208 31.074524 -70.02 -69.98 -1.267 -1.197 -1.6371 9.3908 0.0587 0.1140 -0.612536 0.068779 12.48 
2.423 3 -2.845786 -6.163872 -1.891597 -77.598572 20.568848 16.151428 -70.02 -69.98 -0.158 -0.374 -3.2902 3.9196 0.0588 0.1139 -0.599559 0.984156 12.37 
2.430 3 -4.051709 19.639400 -2.771465 52.719116 -1.495361 -50.666809 69.98 70.02 -0.114 -0.260 -5.6345 1.8127 0.0585 0.1141 -0.594368 0.970873 12.39 
2.437 3 -2.630015 -15.698574 -19.639999 21.774292 -58.731079 -25.184631 69.98 70.02 -0.247 -0.399 -6.2031 -1.6022 0.0577 0.1147 -0.586581 0.133119 12.45 
2.444 3 -0.685674 -1.742954 -1.635068 -30.815125 -101.295471 -10.192871 69.98 70.02 0.139 -0.006 -2.4542 4.5840 0.0575 0.1148 -0.583986 0.397079 12.66 
2.451 3 -5.128169 4.325019 -0.016782 -44.921875 -80.474854 7.820129 69.98 70.02 0.950 0.766 1.3389 5.9835 0.0582 0.1144 -0.578795 1.567524 11.14 
2.458 3 0.575391 -2.826606 -8.230483 -11.474609 -78.689575 -9.666443 69.98 70.02 -2.103 -1.888 10.5646 9.5230 0.0599 0.1133 -0.578795 -0.069796 11.55 
2.465 3 -1.469643 10.340249 3.440356 56.846619 -60.882568 -36.544800 69.98 70.02 1.026 0.678 2.3600 7.0431 0.0605 0.1128 -0.573603 2.737879 12.18 
2.472 3 -12.706543 -17.213770 -19.639999 -19.470215 -68.679810 23.368835 69.98 70.02 1.147 0.874 1.0623 4.0731 0.0610 0.1125 -0.565817 0.574244 11.07 
2.479 3 -2.860171 2.438218 -6.645761 -38.307190 9.361267 -15.533447 55.84 55.89 -1.755 -1.375 4.0246 -2.4019 0.0614 0.1123 -0.571008 0.406415 11.06 
2.486 3 -1.445669 3.049570 -3.152661 -28.755188 -13.206482 -8.094788 69.98 70.02 -0.950 -0.817 -2.9720 -5.7300 0.0605 0.1128 -0.573603 0.429946 11.26 
2.493 3 -8.103417 4.799716 -9.477162 23.170471 0.450134 -20.553589 -70.02 -69.98 -0.190 -0.095 -5.5195 -6.0640 0.0595 0.1135 -0.573603 0.707417 12.17 
2.500 3 -11.236899 0.834316 -19.639999 12.260437 23.582458 -23.780823 69.98 70.02 1.166 0.925 -4.0366 -5.3661 0.0587 0.1140 -0.571008 0.519685 12.31 
2.507 3 -4.881230 -2.697144 -11.670839 -20.111084 -19.493103 30.731201 69.97 70.03 1.128 0.855 7.0431 10.9941 0.0600 0.1132 -0.565817 0.396132 10.63 
2.514 3 -3.675308 3.226982 -8.323984 13.450623 -5.615234 1.174927 69.97 70.03 -0.019 -0.114 5.5421 8.0974 0.0616 0.1122 -0.563221 0.415790 12.37 
2.521 3 -3.831142 -5.394287 -12.766479 4.455566 17.044067 -6.256104 -70.03 -69.97 0.323 0.215 7.3895 5.3661 0.0626 0.1115 -0.563221 0.291543 11.91 
2.528 3 -2.452602 -0.515454 -9.829590 -11.459351 26.458740 -12.176514 69.97 70.03 0.488 0.437 7.0066 2.2538 0.0634 0.1110 -0.571008 0.244520 10.98 
2.535 3 -2.558091 -0.127065 -12.536323 4.852295 29.479980 -5.416870 -70.03 -69.97 -0.380 -0.317 6.3487 3.1521 0.0643 0.1105 -0.573603 0.201291 12.37 
2.542 3 -3.797578 1.448066 -8.599692 -1.625061 19.058228 9.384155 69.97 70.03 1.894 1.482 2.4587 2.0004 0.0646 0.1102 -0.573603 0.232750 11.07 
2.549 3 0.196592 1.726172 -14.118647 4.180908 16.258240 5.706787 -70.03 -69.97 0.171 0.044 5.9051 10.1674 0.0660 0.1094 -0.568412 -0.013923 12.01 
2.556 3 -2.728310 -2.488564 -12.704145 0.198364 21.713257 0.457764 69.97 70.03 1.704 1.356 2.4767 4.8995 0.0666 0.1089 -0.563221 0.447566 11.04 
2.563 3 -2.421435 0.918227 -11.764340 -5.729675 19.073486 -14.442444 69.97 70.03 0.842 0.747 7.1172 6.0101 0.0678 0.1082 -0.565817 0.202993 11.71 
2.570 3 -2.687554 -1.265859 -10.167631 -0.434875 23.971558 -12.580872 69.97 70.03 0.266 0.139 6.9705 7.5546 0.0692 0.1073 -0.565817 0.176945 10.68 
2.577 3 -1.316206 -1.644658 -12.996635 -5.760193 23.826599 -9.353638 -70.03 -69.97 0.906 0.684 5.7300 5.7789 0.0700 0.1068 -0.563221 0.100929 11.94 
2.584 3 -3.277329 -1.344976 -5.773086 -2.838135 10.208130 0.610352 -70.03 -69.97 -0.576 -0.589 7.0431 9.3908 0.0714 0.1059 -0.563221 0.516324 10.90 
2.591 3 -2.661181 0.433940 -7.587964 -4.608154 1.319885 -10.307312 69.97 70.03 1.533 1.286 12.7573 10.9941 0.0728 0.1051 -0.563221 0.337308 12.56 
2.598 3 -2.814619 -0.771982 -12.085600 -2.922058 12.001038 -12.535095 -27.51 -27.45 1.052 0.880 11.1758 10.4021 0.0748 0.1038 -0.563221 0.228812 11.26 
2.605 3 -3.409189 0.402773 -11.742764 -9.201050 20.088196 -2.128601 -70.03 -69.97 0.976 0.779 4.0609 4.2658 0.0756 0.1032 -0.560626 0.282555 12.62 
2.612 3 -1.997085 1.328193 -2.342319 -2.090454 7.804871 -1.937866 -70.03 -69.97 -0.082 -0.266 6.3786 8.6684 0.0768 0.1025 -0.558030 0.706007 11.75 
2.619 3 -0.594570 -0.759995 -4.396943 -1.152039 -14.854431 0.816345 69.97 70.03 -1.660 -1.615 5.0458 6.8296 0.0779 0.1018 -0.558030 0.152708 11.22 
2.626 3 -4.061299 0.901445 -8.683603 -4.096985 -38.307190 1.426697 -70.03 -69.97 0.285 0.222 1.6431 3.1375 0.0780 0.1017 -0.555435 0.437473 11.17 
2.633 3 -3.068750 2.248818 -5.744316 3.746033 -67.398071 10.162354 69.97 70.03 1.970 2.369 0.9288 1.4175 0.0784 0.1015 -0.555435 0.490650 10.81 
2.640 3 -0.419556 -2.486167 -8.594897 9.613037 -84.884644 2.326965 -70.03 -69.97 -1.071 -1.229 11.2689 11.1758 0.0804 0.1003 -0.555435 0.048776 12.56 
2.647 3 -9.357289 -1.078857 3.687295 -1.640320 -65.223694 10.108948 69.97 70.03 0.836 0.760 4.7117 2.7045 0.0813 0.0997 -0.558030 0.344705 11.94 
2.654 3 -19.565678 -0.999741 -19.639999 6.622314 9.475708 8.491516 69.97 70.03 1.818 1.717 11.6575 7.7717 0.0828 0.0988 -0.560626 0.783502 11.98 
2.661 3 -4.874038 1.747749 -0.460312 9.170532 19.699097 3.959656 -70.03 -69.97 0.741 0.798 17.7930 16.0984 0.0855 0.0970 -0.565817 1.476634 11.42 
2.668 3 0.582583 0.146245 5.892959 -1.159668 43.518066 4.951477 69.97 70.03 -0.291 -0.367 10.3227 9.7991 0.0879 0.0955 -0.565817 -1.659021 11.77 
2.675 3 -11.344785 2.366294 -19.639999 -8.338928 3.890991 16.326904 -70.03 -69.97 -0.139 -0.171 8.2455 8.2961 0.0894 0.0946 -0.568412 0.523814 11.96 
2.682 3 -2.287178 4.109248 -1.771724 9.674072 -28.221130 7.286072 69.97 70.03 0.374 0.120 11.3636 13.3888 0.0910 0.0936 -0.565817 0.911716 12.23 
2.689 3 -1.929956 -0.261323 -1.848442 13.740540 -21.461487 5.416870 69.97 70.03 0.494 0.133 10.3227 9.1370 0.0932 0.0922 -0.568412 0.806968 11.17 
2.696 3 -10.054951 -1.114819 -5.473403 8.567810 4.241943 14.961243 69.97 70.03 -0.336 -0.374 10.8182 8.5048 0.0952 0.0909 -0.573603 1.072302 11.82 
2.703 3 -4.070889 -1.107627 -10.591982 7.347107 32.264709 13.237000 69.97 70.03 1.356 1.058 12.4061 10.3227 0.0969 0.0898 -0.573603 0.366931 10.92 
2.710 3 -3.217392 0.764790 -15.595483 15.419006 31.311035 11.955261 -70.03 -69.97 0.735 0.690 10.4021 8.3992 0.0988 0.0886 -0.576199 0.203449 12.04 
2.717 3 -4.185966 -0.558608 -6.465952 9.490967 23.597717 18.623352 69.97 70.03 0.082 0.152 9.1991 8.9554 0.1003 0.0876 -0.578795 0.574535 12.20 
2.724 3 -0.460312 0.726431 -8.781899 11.978149 10.459900 17.166138 -70.03 -69.97 0.868 0.811 9.8706 10.9054 0.1021 0.0864 -0.576199 0.052368 11.98 
2.731 3 -3.255752 -1.392925 -12.296576 9.399414 8.384705 11.573792 -70.03 -69.97 -1.413 -1.223 8.3992 7.5126 0.1040 0.0852 -0.578795 0.258830 12.72 
2.738 3 -4.236313 2.363896 -5.981665 -1.083374 -17.082214 17.669678 69.97 70.03 0.139 0.108 6.4394 4.2391 0.1048 0.0846 -0.581390 0.550900 11.25 
2.745 3 -2.968056 -0.455518 -4.631895 14.480591 -35.842896 8.186340 69.97 70.03 0.177 0.158 10.8182 9.4564 0.1063 0.0836 -0.583986 0.569871 12.20 
2.752 3 -7.700644 -0.901445 -11.138603 11.062622 -44.723511 15.022278 69.97 70.03 0.538 0.405 12.6380 12.8788 0.1087 0.0821 -0.583986 0.604895 12.28 
2.759 3 -12.267807 -2.783452 -19.639999 7.827759 -8.476257 11.497498 69.97 70.03 -0.032 0.146 11.1758 8.6132 0.1107 0.0808 -0.583986 0.558336 12.42 
2.766 3 -4.197954 0.143848 5.895356 5.264282 17.547607 14.663696 69.97 70.03 -1.736 -1.451 6.8643 4.7282 0.1120 0.0799 -0.589177 2.522807 12.77 
2.773 3 -1.462451 2.785850 0.517852 4.806519 0.404358 18.486023 69.97 70.03 -0.741 -0.665 5.4308 3.3307 0.1129 0.0793 -0.586581 1.911118 12.36 
2.780 3 -6.372451 2.428628 -11.138603 22.979736 -36.582947 20.263672 -70.03 -69.97 0.253 0.146 2.4062 3.7048 0.1134 0.0790 -0.583986 0.519656 11.30 
2.787 3 -10.942012 0.575391 -19.639999 19.424438 -49.514771 35.690308 -70.03 -69.97 0.931 0.684 1.0715 3.9425 0.1137 0.0788 -0.578795 0.508300 11.30 
2.794 3 -7.038945 -0.505864 0.256528 17.982483 17.623901 35.301208 69.97 70.03 -0.038 -0.171 0.7028 5.1222 0.1142 0.0784 -0.576199 1.607224 12.37 
2.801 3 -1.565542 0.704853 -5.403877 19.752502 19.645691 34.294128 69.97 70.03 0.665 0.462 0.7028 4.1354 0.1146 0.0782 -0.571008 0.281987 12.12 
2.808 3 -12.243833 1.903584 -14.998515 26.092529 14.152527 38.322449 -70.03 -69.97 0.114 -0.076 5.4308 8.8965 0.1156 0.0776 -0.565817 0.684623 12.02 
2.815 3 -2.721118 -1.234692 -5.912138 23.429871 3.707886 37.391663 69.97 70.03 -1.451 -1.489 4.5685 6.7953 0.1166 0.0769 -0.565817 0.431353 12.55 
2.822 3 -1.939546 1.901186 -3.473921 19.683838 -15.274048 42.320251 69.97 70.03 -1.261 -1.083 2.7374 3.9196 0.1173 0.0765 -0.560626 0.509205 11.01 
2.829 3 -9.048018 -1.630273 -10.014194 29.258728 -16.708374 26.298523 69.97 70.03 0.678 0.621 10.5646 9.3260 0.1185 0.0757 -0.563221 0.734756 12.75 
2.836 3 -5.689175 -0.690469 -8.048276 13.999939 24.284363 31.097412 -70.03 -69.97 1.970 1.634 15.9091 13.2575 0.1210 0.0741 -0.565817 0.615329 10.90 
2.843 3 -3.771206 -0.503467 -8.527768 7.972717 18.386841 24.993896 -70.03 -69.97 -1.824 -1.457 13.2575 8.3473 0.1234 0.0726 -0.571008 0.416371 10.50 
2.850 3 -5.547724 3.195815 -8.494204 17.539978 1.083374 20.011902 69.97 70.03 0.076 0.165 9.3908 5.6818 0.1247 0.0717 -0.576199 0.578565 11.66 
2.857 3 -2.560488 -1.256269 -10.896460 11.383057 -21.301270 24.421692 -70.03 -69.97 0.545 0.551 10.8182 6.4394 0.1264 0.0706 -0.581390 0.230796 11.15 
2.864 3 -5.339145 1.122012 -8.053071 8.453369 -14.045715 15.655518 69.97 70.03 1.026 0.874 8.1956 3.2982 0.1273 0.0701 -0.589177 0.585456 11.09 
2.871 3 -7.532822 -1.026113 -9.822397 14.205933 11.451721 20.530701 -70.03 -69.97 1.900 2.116 16.6947 12.8788 0.1294 0.0686 -0.596963 0.654231 10.66 
2.878 3 -2.526924 -1.289834 -7.540014 3.501892 22.163391 13.168335 69.97 70.03 -2.059 -1.704 17.5619 10.0916 0.1319 0.0669 -0.604750 0.323371 11.91 
2.885 3 -5.197695 -1.390527 -13.521679 10.551453 6.134033 8.544922 -70.03 -69.97 0.671 0.754 10.7323 5.6818 0.1334 0.0659 -0.612536 0.366984 11.82 
2.892 3 -1.644658 -0.426748 -9.983027 6.477356 -12.100220 11.444092 69.97 70.03 0.640 0.627 13.7987 8.3473 0.1352 0.0646 -0.620323 0.163279 11.33 
2.899 3 -5.506968 -1.184346 -11.121821 2.647400 -11.581421 7.339478 69.97 70.03 0.329 0.431 15.5433 8.8384 0.1372 0.0632 -0.630705 0.459760 12.36 
2.906 3 -4.910000 -0.513057 -11.953740 -1.754761 1.647949 -0.846863 69.97 70.03 1.938 2.293 24.5867 13.7987 0.1399 0.0611 -0.643683 0.529740 10.81 
2.913 3 -1.941943 1.882007 -19.639999 -0.099182 27.420044 -2.243042 69.97 70.03 0.380 0.551 24.5867 17.3368 0.1436 0.0583 -0.656661 1.909178 11.96 
2.920 3 -5.643623 4.164390 -8.319189 -5.722046 50.781250 -1.861572 69.97 70.03 -0.494 -0.424 15.5433 7.9545 0.1460 0.0565 -0.664447 0.596072 12.06 
2.927 3 -3.771206 5.581289 -13.459345 3.318787 43.052673 19.775391 -70.03 -69.97 0.912 0.722 9.5230 6.8296 0.1474 0.0554 -0.667043 0.273187 11.99 
2.934 3 -0.584980 0.210977 -11.666044 16.044617 22.781372 7.789612 69.97 70.03 -1.026 -1.007 10.4021 9.8706 0.1488 0.0542 -0.669638 0.050102 12.21 
2.941 3 -2.325537 -0.767187 -4.715806 11.505127 3.959656 20.019531 -70.03 -69.97 1.926 2.109 10.9054 11.2689 0.1504 0.0530 -0.669638 0.458142 10.85 
2.948 3 -2.035444 2.709131 -7.154023 10.833740 -20.561218 19.172668 69.97 70.03 -1.216 -1.134 5.5649 5.4308 0.1520 0.0518 -0.669638 0.277193 12.88 
2.955 3 -4.485649 -0.503467 -7.575976 12.084961 -39.962769 20.523071 -70.03 -69.97 0.310 0.177 3.3389 3.2664 0.1523 0.0515 -0.669638 0.534582 12.17 
2.962 3 -3.219790 2.438218 -6.607402 15.068054 -62.866211 30.448914 -70.03 -69.97 0.507 0.323 1.2650 1.2638 0.1521 0.0516 -0.667043 0.453436 12.42 
2.969 3 -5.535737 0.664097 -4.166787 23.811340 -78.788757 36.201477 69.97 70.03 -0.773 -0.899 3.4322 3.7253 0.1526 0.0513 -0.664447 0.925565 12.34 
2.976 3 -19.639999 -1.433682 -19.639999 31.364441 9.490967 33.699036 69.97 70.03 0.361 0.190 1.6715 6.5327 0.1532 0.0508 -0.659256 0.785398 11.94 
2.983 3 -4.890820 0.249336 6.281347 28.137207 29.983521 34.713745 69.97 70.03 -2.242 -1.995 9.3908 10.6478 0.1548 0.0495 -0.654065 2.480021 11.18 
2.990 3 3.169443 -0.920625 3.035185 21.804810 41.954041 31.440735 -70.03 -69.97 -1.096 -1.045 -3.2351 4.1228 0.1552 0.0493 -0.648874 -2.334559 10.66 
2.997 3 -7.892441 -3.816758 -15.175927 6.896973 -2.204895 51.300049 69.97 70.03 -0.279 -0.418 -2.8895 1.5126 0.1552 0.0493 -0.643683 0.479569 12.50 
3.004 3 -6.166269 7.000586 -2.205664 16.921997 -53.077698 49.041748 69.97 70.03 -0.899 -0.893 1.8225 4.9716 0.1556 0.0489 -0.641087 1.227280 11.93 
3.011 3 -10.944408 2.651592 -6.120718 37.109375 -23.506165 27.542114 -70.03 -69.97 -0.982 -0.906 2.8231 2.9461 0.1560 0.0487 -0.641087 1.060875 12.43 
3.018 3 -4.842871 -1.265859 -8.429472 43.014526 20.133972 24.436951 -70.03 -69.97 -0.285 -0.393 1.1489 1.1688 0.1560 0.0487 -0.641087 0.521471 10.96 
3.025 3 -4.241108 -0.702456 -4.353789 18.592834 7.133484 45.951843 69.97 70.03 -0.646 -0.583 0.7463 0.8021 0.1563 0.0484 -0.641087 0.772289 11.00 
3.032 3 -10.594379 -2.608438 -15.844819 -10.032654 16.357422 78.041077 -70.03 -69.97 0.868 0.678 3.0594 6.0640 0.1569 0.0480 -0.635896 0.589363 11.12 
3.039 3 -7.094087 8.204111 -9.798423 35.972595 28.427124 41.412354 69.97 70.03 -0.038 -0.146 3.2902 6.9347 0.1579 0.0473 -0.630705 0.626654 12.32 
3.046 3 -1.805288 -2.963262 -12.068818 44.883728 -4.348755 26.962280 -70.03 -69.97 1.147 0.925 4.8643 8.5587 0.1590 0.0464 -0.628110 0.148482 12.42 
3.053 3 -2.049829 -3.071147 -9.613818 -0.579834 -9.109497 43.228149 -35.46 -35.40 1.672 1.552 7.9545 4.8995 0.1602 0.0456 -0.630705 0.481673 11.85 
3.060 3 -4.914795 3.248559 -1.567939 15.945435 -7.926941 21.713257 69.97 70.03 -0.785 -0.741 14.5405 8.3992 0.1620 0.0443 -0.638492 1.261979 11.11 
3.067 3 -4.869243 -0.834316 -17.659697 15.739441 -0.404358 7.087708 -70.03 -69.97 1.267 1.311 15.1940 7.8620 0.1636 0.0431 -0.648874 0.269041 10.93 
3.074 3 -3.696885 -4.547983 -9.915898 -0.213623 3.196716 10.772705 69.97 70.03 0.741 1.014 15.5433 5.4970 0.1653 0.0417 -0.661852 0.497162 11.44 
3.081 3 -4.713408 0.438735 -10.105297 3.082275 6.088257 -0.305176 69.97 70.03 0.222 0.488 24.5867 12.6380 0.1678 0.0397 -0.677425 0.436432 11.99 
3.088 3 -1.416899 -2.697144 -10.213183 -5.554199 10.261536 -9.910583 -70.03 -69.97 1.001 1.191 24.5867 9.0151 0.1708 0.0373 -0.695594 0.137852 12.47 
3.095 3 -2.519731 -0.484287 -18.539564 1.136780 23.231506 -16.761780 69.97 70.03 -0.285 -0.291 18.0303 6.8643 0.1731 0.0353 -0.713762 0.458296 11.41 
3.102 3 -3.742436 2.021060 -14.758769 8.590698 13.488770 12.245178 69.97 70.03 0.108 0.215 10.2445 4.4337 0.1745 0.0341 -0.726740 0.248339 11.87 
3.109 3 -1.143589 0.179810 -5.420659 7.179260 5.142212 22.140503 -70.03 -69.97 0.899 0.798 8.3992 6.8643 0.1757 0.0331 -0.726740 0.207920 11.93 
3.116 3 -3.752026 2.642002 -9.870346 17.372131 -16.433716 24.772644 69.97 70.03 -0.538 -0.602 12.0738 12.1826 0.1775 0.0315 -0.726740 0.363262 11.11 
3.123 3 -4.085273 -3.205405 -4.984321 19.081116 -8.674622 22.323608 69.97 70.03 1.476 1.299 6.2317 5.6818 0.1787 0.0304 -0.726740 0.686593 12.42 
3.130 3 -1.546362 1.476836 -7.175601 6.561279 -12.374878 21.148682 69.97 70.03 -0.766 -0.659 8.1956 6.4089 0.1800 0.0292 -0.729335 0.212257 11.91 
3.137 3 -2.826606 -3.073545 -6.729672 18.836975 -26.336670 23.887634 -70.03 -69.97 1.742 1.761 12.5210 9.7286 0.1814 0.0280 -0.731931 0.397646 10.85 
3.144 3 -9.908706 0.302080 -13.425781 12.390137 -1.327515 11.344910 69.97 70.03 0.355 0.342 12.5210 9.5230 0.1830 0.0265 -0.734526 0.635800 11.11 
3.151 3 -2.342319 -2.291973 -6.712891 14.587402 16.662598 22.415161 -59.16 -59.09 0.855 0.823 10.3227 9.6591 0.1848 0.0249 -0.739717 0.335720 11.15 
3.158 3 -1.536772 2.212856 -7.379385 5.096436 19.783020 27.107239 -70.03 -69.97 -0.342 -0.342 7.6833 6.5964 0.1861 0.0237 -0.742313 0.205318 12.42 
3.165 3 -4.425713 0.369209 -12.996635 15.319824 -17.799377 27.793884 -70.03 -69.97 0.849 0.678 9.1991 6.9347 0.1873 0.0226 -0.742313 0.328211 11.36 
3.172 3 -1.457656 -0.124668 -3.548242 16.700745 -24.238586 25.863647 -70.03 -69.97 0.976 0.849 7.7273 4.4926 0.1882 0.0218 -0.747504 0.389791 11.82 
3.179 3 -6.418003 -0.028770 -2.323140 14.221191 -25.154114 28.556824 69.97 70.03 1.102 0.893 10.4827 10.4827 0.1897 0.0204 -0.747504 1.223496 11.94 
3.186 3 -8.849028 -0.326055 -13.243574 14.709473 7.362366 29.594421 69.97 70.03 0.057 -0.000 13.2575 11.9670 0.1916 0.0186 -0.750100 0.589046 11.68 
3.193 3 -2.989634 0.975767 -5.135361 17.593384 12.062073 30.296326 69.97 70.03 -0.804 -0.735 16.4911 13.9409 0.1936 0.0167 -0.755291 0.527203 12.37 
3.200 3 -5.684380 -1.479233 -19.639999 20.050049 16.403198 16.540527 69.97 70.03 0.355 0.494 11.8620 9.3908 0.1955 0.0149 -0.757886 0.281730 12.12 
3.207 3 -2.970454 -1.409707 -14.497446 10.765076 6.187439 28.823853 69.97 70.03 0.177 0.196 15.1940 11.6575 0.1973 0.0132 -0.763077 0.202098 11.99 
3.214 3 -0.740815 0.884663 -12.349321 12.741089 15.907288 20.942688 -70.03 -69.97 1.470 1.381 14.6986 13.5227 0.1995 0.0111 -0.765673 0.059917 12.20 
3.221 3 -3.241367 -1.359360 -10.270722 15.266418 25.299072 21.881104 69.97 70.03 0.589 0.557 14.8601 12.5210 0.2016 0.0090 -0.768268 0.305700 12.09 
3.228 3 -3.600986 -0.673687 -19.639999 7.019043 28.030396 22.338867 -70.03 -69.97 0.393 0.431 12.0738 9.3260 0.2035 0.0072 -0.770864 0.181336 11.07 
3.235 3 -3.078340 1.968315 -9.839179 19.195557 8.804321 23.536682 69.97 70.03 0.526 0.602 11.3636 10.9054 0.2053 0.0055 -0.776055 0.303218 11.12 
3.242 3 -3.277329 -1.553555 -13.023007 20.744324 1.045227 22.644043 -70.03 -69.97 1.970 1.913 21.8108 20.1831 0.2078 0.0030 -0.776055 0.246537 10.84 
3.249 3 -5.545327 -1.882007 -7.225947 7.125854 22.308350 28.549194 69.97 70.03 0.184 0.361 13.6593 11.8620 0.2104 0.0005 -0.776055 0.654556 11.61 
3.256 3 -3.948618 1.002139 -5.303184 9.895325 26.504517 27.107239 -70.03 -69.97 -0.874 -0.570 13.5227 12.2934 0.2123 -0.0014 -0.778651 0.640020 12.36 
3.263 3 -2.059419 2.622822 -7.983545 14.381409 8.064270 31.318665 39.11 39.18 -0.849 -0.614 10.2445 11.1758 0.2137 -0.0028 -0.778651 0.252454 11.09 
3.270 3 -1.215513 -0.457915 -2.862568 18.119812 2.166748 24.208069 -70.03 -69.97 1.406 1.223 7.3493 8.8965 0.2150 -0.0040 -0.776055 0.401551 12.06 
3.277 3 -4.651074 -0.491479 -10.285107 15.830994 -18.730164 32.371521 -70.03 -69.97 0.925 0.760 13.5227 14.5405 0.2170 -0.0060 -0.776055 0.424694 11.91 
3.284 3 -3.881489 -1.004536 -10.086118 10.490417 -35.148621 36.567688 -70.03 -69.97 -0.957 -0.728 12.1826 11.5579 0.2190 -0.0080 -0.770864 0.367365 11.34 
3.291 3 -4.102056 2.450205 -5.061040 15.678406 -38.421631 24.551392 69.97 70.03 1.090 0.893 8.5048 7.7273 0.2203 -0.0093 -0.773459 0.681121 11.06 
3.298 3 -3.579409 -1.848442 -7.832505 18.409729 -52.375793 29.975891 69.97 70.03 1.052 1.001 12.5210 12.6380 0.2221 -0.0109 -0.773459 0.428655 11.18 
3.305 3 -7.832505 0.599365 -14.583755 11.489868 -44.273376 23.155212 69.97 70.03 -0.481 -0.253 14.2344 11.7589 0.2242 -0.0130 -0.776055 0.492862 10.71 
3.312 3 -2.478975 -0.923022 -10.510468 13.320923 17.166138 16.044617 -70.03 -69.97 1.197 1.058 19.8863 16.6947 0.2264 -0.0152 -0.778651 0.231625 10.90 
3.319 3 -3.862309 0.635327 -8.117803 13.343811 17.425537 16.502380 -70.03 -69.97 -1.026 -0.861 16.9034 11.4599 0.2287 -0.0174 -0.783842 0.444087 11.15 
3.326 3 -7.206768 -0.366812 -11.680429 7.545471 7.644653 27.107239 69.97 70.03 0.355 0.374 17.7930 14.8601 0.2306 -0.0194 -0.789033 0.552822 12.02 
3.333 3 -2.009072 -0.472300 -12.346924 15.296936 -5.027771 17.463684 69.97 70.03 0.855 0.811 22.9198 17.7930 0.2335 -0.0223 -0.794224 0.161305 11.45 
3.340 3 0.294888 -1.433682 -10.843716 11.054993 3.158569 4.943848 -70.03 -69.97 1.286 1.128 21.1292 14.2344 0.2361 -0.0250 -0.802010 -0.027188 12.02 
3.347 3 -2.562886 -1.006934 -8.935337 7.263184 27.671814 18.310547 -70.03 -69.97 -0.412 -0.272 17.5619 12.4061 0.2385 -0.0275 -0.809797 0.279327 11.69 
3.354 3 -5.085014 3.646538 -13.629565 10.963440 4.837036 31.898499 -70.03 -69.97 0.982 0.874 16.4911 13.5227 0.2404 -0.0295 -0.814988 0.357093 11.09 
3.361 3 -5.269619 0.685674 -5.154541 21.385193 -0.259399 29.357910 69.97 70.03 -0.950 -0.817 11.9670 10.9941 0.2424 -0.0316 -0.814988 0.796437 12.50 
3.368 3 -2.421435 1.332988 -8.247266 25.840759 -17.509460 31.814575 -70.03 -69.97 -0.792 -0.836 11.4599 9.5906 0.2439 -0.0332 -0.817584 0.285579 11.37 
3.375 3 -3.346855 -0.611353 -7.739004 21.118164 -26.443481 31.936646 -70.03 -69.97 0.101 0.152 2.7882 4.0978 0.2444 -0.0338 -0.817584 0.408177 11.88 
3.382 3 -10.985166 2.407051 -11.275258 22.659302 -30.120850 46.501160 69.97 70.03 1.520 1.362 9.1991 11.3636 0.2454 -0.0348 -0.814988 0.772367 10.88 
3.389 3 -5.574097 -0.100693 -8.877797 28.236389 20.591736 42.236328 -70.03 -69.97 0.842 0.570 11.2689 14.8601 0.2471 -0.0366 -0.809797 0.560660 11.83 
3.396 3 -5.025078 0.896650 -7.293076 30.334473 22.575378 44.189453 -70.03 -69.97 -0.291 -0.342 9.7991 12.8788 0.2489 -0.0385 -0.807202 0.603319 12.09 
3.403 3 -6.034409 -0.163027 -11.829072 28.205872 8.369446 46.546936 69.97 70.03 1.102 0.817 11.9670 12.6380 0.2504 -0.0400 -0.804606 0.471722 11.36 
3.410 3 -4.348994 -1.452861 -7.283486 28.457642 4.272461 38.055420 -70.03 -69.97 0.393 0.646 13.2575 12.7573 0.2525 -0.0422 -0.802010 0.538287 10.90 
3.417 3 -4.476059 -0.189399 -6.938252 21.797180 6.362915 38.009644 69.97 70.03 -0.526 -0.526 15.1940 11.3636 0.2542 -0.0440 -0.807202 0.572942 12.29 
3.424 3 -4.682241 0.759995 -9.563472 23.025513 14.404297 35.087585 -70.03 -69.97 0.538 0.519 12.5210 8.5048 0.2560 -0.0458 -0.809797 0.455290 11.23 
3.431 3 -7.345820 0.007192 -7.329038 22.056580 1.869202 38.505554 69.97 70.03 -0.817 -0.703 10.6478 10.3227 0.2574 -0.0473 -0.814988 0.786542 12.39 
3.438 3 -5.331953 0.601763 -8.470229 24.490356 -1.464844 39.230347 69.97 70.03 -0.526 -0.361 10.4827 8.8384 0.2587 -0.0488 -0.814988 0.561824 11.34 
3.445 3 -4.612715 -0.129463 -5.554917 22.644043 -0.389099 44.433594 69.97 70.03 1.831 1.444 13.7987 12.1826 0.2603 -0.0504 -0.817584 0.692995 10.90 
3.452 3 -7.707837 -0.652109 -9.417226 24.299622 9.521484 39.642334 69.97 70.03 -0.963 -1.071 23.3150 15.7241 0.2631 -0.0535 -0.820179 0.685910 10.87 
3.459 3 -6.341284 -0.901445 -11.790712 18.753052 27.191162 28.839111 69.97 70.03 -0.931 -0.678 18.7815 11.2689 0.2655 -0.0560 -0.827966 0.493444 12.50 
3.466 3 -5.003501 0.035962 -6.763237 15.136719 32.752991 26.748657 -70.03 -69.97 0.773 0.963 18.7815 12.8788 0.2675 -0.0582 -0.840944 0.636947 11.30 
3.473 3 -5.435044 -1.093242 -10.349838 12.512207 44.082642 23.025513 69.97 70.03 1.216 1.096 25.5145 17.3368 0.2700 -0.0611 -0.848730 0.483551 10.85 
3.480 3 -5.739522 -0.273311 -9.899116 12.565613 56.678772 19.065857 69.97 70.03 -0.621 -0.177 26.0052 16.4911 0.2731 -0.0646 -0.861708 0.525435 10.95 
3.487 3 -3.716064 -0.445928 -8.096226 5.783081 64.651489 16.372681 69.97 70.03 -1.064 -0.735 24.5867 12.0738 0.2755 -0.0675 -0.874686 0.430303 11.98 
3.494 3 -7.249922 2.483769 -9.839179 14.625549 76.492310 18.302917 69.97 70.03 -0.836 -0.614 19.0460 12.4061 0.2777 -0.0701 -0.887663 0.635027 11.91 
3.501 3 -4.814101 1.790903 -8.695591 21.499634 76.576233 29.685974 -70.03 -69.97 0.095 0.089 15.1940 12.4061 0.2793 -0.0722 -0.890259 0.505623 11.98 
3.508 3 -4.054106 1.009331 -5.775483 13.549805 76.393127 44.563293 69.96 70.04 -1.134 -0.988 11.4599 10.9941 0.2810 -0.0742 -0.892854 0.612034 11.75 
3.515 3 -4.595932 5.108989 -7.739004 24.078369 64.727783 40.206909 69.96 70.04 1.970 1.685 13.7987 14.6986 0.2825 -0.0761 -0.892854 0.535897 11.83 
3.522 3 -6.307720 -2.980044 -5.895356 22.239685 71.960449 33.111572 69.96 70.04 -1.096 -0.918 18.7815 16.0984 0.2849 -0.0791 -0.895450 0.819177 10.87 
3.529 3 -4.878833 -1.515195 -9.151108 11.550903 85.136414 30.982971 69.96 70.04 -0.785 -0.697 15.5433 10.1674 0.2866 -0.0813 -0.900641 0.489808 12.56 
3.536 3 -4.540791 -0.726431 -9.757666 12.649536 76.393127 37.261963 -70.04 -69.96 0.158 0.380 16.0984 15.0252 0.2884 -0.0835 -0.905832 0.435551 12.06 
3.543 3 -4.286660 -1.644658 -8.906568 17.410278 88.447571 36.094666 69.96 70.04 -0.032 -0.000 17.1173 16.2924 0.2904 -0.0860 -0.905832 0.448570 12.18 
3.550 3 -5.200093 0.501069 -10.922832 10.910034 101.501465 28.816223 69.96 70.04 -0.697 -0.513 16.6947 12.4061 0.2923 -0.0885 -0.911023 0.444325 12.15 
3.557 3 -6.406015 0.465107 -10.745420 13.610840 107.948303 28.190613 69.96 70.04 1.451 1.299 16.9034 13.0026 0.2941 -0.0908 -0.916214 0.537593 11.42 
3.564 3 -3.481113 -1.414502 -15.880781 21.224976 114.151001 27.984619 -70.04 -69.96 1.330 1.178 22.5378 19.5981 0.2966 -0.0941 -0.918810 0.215790 12.06 
3.571 3 -3.871899 -1.436079 -14.046723 11.878967 145.248413 35.705566 -70.04 -69.96 -1.216 -1.394 19.0460 12.4061 0.2991 -0.0973 -0.924001 0.268965 12.64 
3.578 3 -6.729672 3.325278 -13.859721 10.856628 153.442383 33.958435 -70.04 -69.96 0.336 0.450 12.2934 7.2703 0.3004 -0.0991 -0.931788 0.452026 12.43 
3.585 3 -4.684639 1.714185 -2.267998 16.433716 155.731201 37.307739 69.96 70.04 0.127 0.108 10.7323 8.7243 0.3016 -0.1007 -0.936979 1.119921 11.85 
3.592 3 -3.466728 0.724033 -8.964107 26.962280 140.151978 48.263550 -70.04 -69.96 1.102 0.963 13.3888 11.9670 0.3029 -0.1025 -0.939574 0.369018 10.96 
3.599 3 -4.969936 -1.536772 -7.885249 15.708923 129.829407 60.676575 69.96 70.04 0.982 0.792 13.5227 15.0252 0.3046 -0.1048 -0.934383 0.562389 10.68 
3.606 3 -4.197954 0.455518 -9.997412 18.470764 131.393433 61.080933 69.96 70.04 0.456 0.310 13.6593 15.1940 0.3066 -0.1075 -0.936979 0.397546 12.04 
3.613 3 -3.411587 -2.459795 -10.733432 20.263672 143.486023 54.649353 -70.04 -69.96 0.399 0.386 16.0984 12.0738 0.3085 -0.1101 -0.936979 0.307748 11.11 
3.620 3 -4.720601 -0.923022 -9.585049 9.338379 155.479431 47.302246 69.96 70.04 -0.051 0.063 15.0252 10.1674 0.3100 -0.1122 -0.944765 0.457627 12.58 
3.627 3 -3.061558 -0.182207 -9.143916 15.235901 147.781372 52.871704 -70.04 -69.96 1.831 2.059 16.4911 13.0026 0.3117 -0.1145 -0.949956 0.323087 11.04 
3.634 3 -2.313550 -0.872676 -11.917778 12.886047 155.296326 50.384521 69.96 70.04 -2.033 -1.761 16.9034 12.7573 0.3137 -0.1173 -0.952552 0.191741 11.22 
3.641 3 -3.279727 0.980561 -12.126357 12.664795 159.263611 48.301697 -70.04 -69.96 0.488 0.450 11.5579 7.3493 0.3148 -0.1189 -0.957743 0.264143 12.06 
3.648 3 -3.282124 -0.237349 -9.995014 17.272949 156.768799 45.783997 65.81 65.88 0.893 1.159 10.7323 7.8620 0.3160 -0.1206 -0.962934 0.317282 12.15 
3.655 3 -2.488564 -1.181948 -5.859395 7.652283 154.212952 57.342529 69.96 70.04 -1.653 -1.704 14.5405 11.2689 0.3176 -0.1229 -0.962934 0.401628 11.99 
3.662 3 -0.899048 1.424092 -9.853564 8.071899 149.070740 57.952881 -45.82 -45.75 1.026 0.811 10.4827 5.6580 0.3185 -0.1242 -0.968125 0.090989 11.11 
3.669 3 -2.138535 -0.251733 -7.729414 16.120911 142.738342 59.249878 -70.04 -69.96 1.533 1.337 10.9054 8.2455 0.3197 -0.1259 -0.973316 0.269923 12.18 
3.676 3 -2.021060 -1.522388 -6.183052 6.103516 140.426636 69.503784 69.96 70.04 -0.823 -0.912 13.2575 11.8620 0.3210 -0.1279 -0.973316 0.315923 12.37 
3.683 3 -0.721636 0.335645 -10.721445 4.730225 137.245178 68.557739 38.81 38.88 0.969 0.893 11.5579 8.8965 0.3223 -0.1297 -0.975912 0.067206 11.36 
3.690 3 -2.864966 -0.577788 -10.385800 8.323669 136.589050 68.008423 -70.04 -69.96 1.527 1.552 18.2739 15.3667 0.3242 -0.1325 -0.978507 0.269160 10.96 
3.697 3 -1.985098 0.107886 -9.071992 4.425049 160.530090 49.514771 69.96 70.04 -2.078 -1.913 11.8620 8.6684 0.3255 -0.1345 -0.983698 0.215421 10.74 
3.704 3 -1.066870 -0.690469 -9.383662 -0.816345 162.597656 58.883667 69.96 70.04 1.191 1.197 4.4926 1.6273 0.3260 -0.1352 -0.988890 0.207979 12.29 
3.711 3 -1.153179 1.618286 -7.228344 0.892639 152.320862 67.001343 69.96 70.04 1.964 1.368 13.2575 9.9432 0.3271 -0.1369 -0.994081 0.305698 10.81 
3.718 3 -2.102573 -1.083652 -9.194263 3.242493 155.197144 61.340332 69.96 70.04 -0.184 -0.133 19.3181 18.0303 0.3291 -0.1401 -0.996676 0.224817 11.61 
3.725 3 0.546621 -2.083394 -5.015488 -2.693176 177.024841 53.985596 -70.04 -69.96 0.690 0.494 21.1292 15.5433 0.3311 -0.1432 -1.001867 -0.108558 11.07 
3.732 3 -0.059937 0.330850 -1.654248 -3.074646 201.179504 47.248840 -49.43 -49.36 -0.089 -0.019 16.6947 8.0492 0.3326 -0.1455 -1.012249 0.036216 12.02 
3.739 3 -1.632671 -0.671289 -7.707837 -3.623962 204.399109 48.927307 -9.81 -9.73 0.925 0.893 10.9941 5.2617 0.3335 -0.1471 -1.020035 0.208734 11.30 
3.746 3 0.551416 0.249336 -8.925747 -2.227783 205.612183 49.995422 -70.04 -69.96 0.076 0.051 8.9554 4.7117 0.3345 -0.1486 -1.027821 -0.061700 11.75 
3.753 3 -0.611353 0.911035 -12.459604 0.137329 188.156128 67.863464 69.96 70.04 -0.507 -0.234 6.2317 5.9051 0.3351 -0.1497 -1.027821 0.220190 10.85 
3.760 3 -2.337524 -6.271758 -9.731294 0.633240 159.622192 61.431885 69.96 70.04 1.508 1.014 13.1288 12.8788 0.3362 -0.1514 -1.027821 0.263547 10.76 
3.767 3 0.095898 0.654507 -4.874038 -22.422791 164.985657 52.749634 -70.04 -69.96 0.405 0.418 13.2575 12.2934 0.3377 -0.1540 -1.030417 -0.019673 11.25 
3.774 3 -0.338042 2.800234 -7.739004 0.938416 181.739807 45.440674 -70.04 -69.96 -0.779 -0.462 5.8794 4.5996 0.3386 -0.1555 -1.033012 -0.028773 10.87 
3.781 3 -0.915830 -5.535737 -10.894062 2.609253 169.258118 30.181885 69.96 70.04 1.071 0.957 8.4517 2.6884 0.3392 -0.1564 -1.035608 0.083870 11.23 
3.788 3 1.117217 0.970972 -9.465176 -17.990112 173.248291 19.844055 69.96 70.04 -1.989 -1.805 10.0168 7.2703 0.3402 -0.1581 -1.040799 -0.117491 11.66 
3.795 3 -0.112681 1.601504 -9.086377 8.911133 169.692993 15.167236 -70.04 -69.96 0.614 0.589 8.0492 2.8231 0.3407 -0.1590 -1.048585 0.012400 11.93 
3.802 3 -0.510659 -2.162510 -15.509174 -3.334045 159.469604 22.163391 69.96 70.04 -2.280 -1.995 8.3992 4.0731 0.3413 -0.1600 -1.053776 0.032914 10.68 
3.809 3 0.218169 1.138794 -10.666304 -11.795044 141.090393 21.514893 69.96 70.04 -0.374 -0.393 7.8166 3.5774 0.3418 -0.1609 -1.056371 -0.020451 10.81 
3.816 3 1.711787 -1.263462 -11.450274 0.030518 141.952515 15.083313 69.96 70.04 -0.583 -0.589 5.7789 4.6954 0.3424 -0.1620 -1.056371 0.008014 11.87 
3.823 3 0.956587 -1.265859 -7.403359 -4.821777 152.305603 11.108398 69.96 70.04 -1.691 -1.571 2.8711 2.3808 0.3427 -0.1625 -1.058967 -0.128498 11.88 
3.830 3 0.628135 -0.407568 -13.787797 -4.333496 127.655029 15.098572 69.96 70.04 0.127 0.063 1.6041 3.2429 0.3427 -0.1625 -1.058967 -0.045526 12.21 
3.837 3 1.383335 -0.067129 -10.452929 3.074646 124.046326 2.479553 -70.04 -69.96 -0.462 -0.507 1.3869 2.9526 0.3429 -0.1628 -1.058967 -0.131575 12.59 
3.844 3 -0.728828 -0.752803 -9.757666 -0.083923 109.161377 1.892090 -70.04 -69.96 -2.546 -1.995 -1.1769 -3.6157 0.3426 -0.1623 -1.061562 -0.137795 11.03 
3.851 3 0.491479 0.297285 -9.278173 0.740051 90.888977 -1.609802 -70.04 -69.96 -1.109 -1.140 -10.4021 -12.8788 0.3415 -0.1604 -1.064157 -0.075588 10.74 
3.858 3 2.999223 -0.472300 -8.683603 2.204895 75.256348 -2.212524 -70.04 -69.96 0.868 0.830 -7.9545 -10.1674 0.3405 -0.1586 -1.069348 -0.332561 12.15 
3.865 3 1.203525 -0.429145 -14.123442 -3.295898 71.189880 -0.556946 -70.04 -69.96 0.494 0.621 -2.3518 -3.4585 0.3401 -0.1579 -1.074539 -0.085009 11.23 
3.872 3 1.040498 0.896650 -7.456103 -4.898071 93.086243 -0.907898 69.96 70.04 -1.634 -1.539 -1.3509 -6.1467 0.3399 -0.1574 -1.077134 -0.138654 11.15 
3.879 3 2.555693 -0.033564 -9.215839 4.058838 97.640991 8.041382 -70.04 -69.96 -2.413 -1.995 -6.9705 -9.6591 0.3391 -0.1560 -1.077134 -0.270517 11.14 
3.886 3 1.992290 -2.737900 -12.728120 1.258850 93.154907 13.710022 -70.04 -69.96 0.000 -0.019 -5.9835 -6.6288 0.3383 -0.1545 -1.077134 -0.034323 11.91 
3.893 3 0.644917 -2.083394 -12.545913 -9.292603 94.459534 4.653931 -70.04 -69.96 0.684 0.272 -9.6591 -9.7286 0.3376 -0.1531 -1.077134 -0.051359 10.84 
3.900 3 0.529839 1.193936 -9.244609 1.869202 90.003967 4.844666 69.96 70.04 -1.799 -1.634 -6.5013 -7.7717 0.3369 -0.1519 -1.079730 -0.057251 10.69 
3.907 3 3.099917 -1.009331 -8.966504 3.517151 92.323303 0.564575 -70.04 -69.96 0.671 0.551 -9.1370 -10.9941 0.3359 -0.1501 -1.079730 -0.332859 11.28 
3.914 3 1.359360 0.278105 -12.797647 -1.525879 92.666626 1.708984 -70.04 -69.96 0.298 0.196 -9.3260 -9.3908 0.3351 -0.1485 -1.082325 -0.205154 12.53 
3.921 3 1.714185 0.465107 -13.660732 1.480103 96.488953 9.170532 -70.04 -69.96 -2.249 -1.995 -14.0861 -11.8620 0.3341 -0.1466 -1.079730 -0.271565 10.85 
3.928 3 2.541308 -3.250957 -15.358134 6.561279 85.517883 1.335144 -70.04 -69.96 -1.014 -1.001 -16.9034 -16.4911 0.3324 -0.1435 -1.082325 -0.163984 10.69 
3.935 3 3.416382 -0.781572 -8.506191 -6.828308 79.620361 4.653931 -70.04 -69.96 -0.792 -0.823 -16.2924 -15.7241 0.3308 -0.1405 -1.079730 -0.381915 10.84 
3.942 3 3.627358 -1.035703 -13.790195 3.868103 72.532654 2.586365 -70.04 -69.96 0.000 -0.019 -14.6986 -15.0252 0.3295 -0.1380 -1.079730 -0.257212 12.01 
3.949 3 -0.079116 -1.083652 -6.672133 3.608704 77.232361 -1.922607 69.96 70.04 -0.412 -0.310 -12.4061 -12.8788 0.3281 -0.1354 -1.082325 0.011857 11.18 
3.956 3 3.471523 0.134258 -7.022163 1.457214 93.505859 -0.778198 -70.04 -69.96 -2.217 -1.989 -14.5405 -14.6986 0.3270 -0.1332 -1.082325 -0.366734 10.98 
3.963 3 12.030458 -0.973369 -6.955034 7.728577 95.260620 1.792908 -70.04 -69.96 -0.361 -0.304 -12.8788 -13.3888 0.3254 -0.1304 -1.082325 -1.046621 11.60 
3.970 3 -4.699023 -3.246162 -19.639999 16.670227 -57.678223 -1.533508 69.96 70.04 0.627 0.564 -16.2924 -16.9034 0.3239 -0.1276 -1.082325 0.234843 11.99 
3.977 3 1.059678 2.160112 -19.639999 6.729126 23.506165 -9.063721 -70.04 -69.96 -0.589 -0.595 -8.0492 -8.8965 0.3229 -0.1256 -1.084921 -0.053903 11.03 
3.984 3 19.639400 -7.434526 -11.670839 13.168335 -11.695862 -23.345947 -70.04 -69.96 0.431 0.323 -9.1370 -10.4021 0.3219 -0.1236 -1.087516 -1.034611 11.61 
3.991 3 7.513642 5.022680 -1.371348 14.671326 14.152527 -14.259338 -70.04 -69.96 0.228 0.215 -10.9054 -14.6986 0.3207 -0.1213 -1.090112 -1.390269 11.60 
3.998 3 3.799975 -4.006157 -6.214219 23.902893 19.927979 -23.971558 69.96 70.04 -0.196 0.032 -12.5210 -15.3667 0.3195 -0.1190 -1.092707 -0.548830 11.01 
4.005 3 4.830884 -2.817017 -2.864966 9.574890 -8.766174 -31.684875 -70.04 -69.96 0.247 0.013 -10.9941 -13.7987 0.3183 -0.1167 -1.095303 -1.035501 11.55 
4.012 3 6.434785 2.929697 -16.796610 23.979187 0.045776 -28.327942 69.96 70.04 -1.064 -0.963 -12.8788 -15.0252 0.3172 -0.1145 -1.100494 -0.365853 11.06 
4.019 3 7.971557 -2.785850 -5.315171 22.972107 -0.503540 -21.278381 -70.04 -69.96 0.830 0.728 -13.5227 -16.6947 0.3157 -0.1117 -1.105684 -0.982724 10.93 
4.026 3 5.104194 1.733364 -8.151367 20.927429 -5.409241 -30.868530 -70.04 -69.96 0.893 0.747 -12.4061 -13.1288 0.3144 -0.1091 -1.110875 -0.559445 11.18 
4.033 3 5.272017 -2.155317 -9.189467 15.274048 1.052856 -37.796021 69.96 70.04 -1.387 -1.495 -12.1826 -16.4911 0.3132 -0.1066 -1.116066 -0.520858 11.99 
4.040 3 5.677187 2.546103 -10.131670 16.624451 5.867004 -27.626038 69.96 70.04 -0.127 -0.000 -18.5242 -19.8863 0.3115 -0.1032 -1.118662 -0.510748 11.36 
4.047 3 5.686777 -1.599106 -7.331435 24.620056 -3.067017 -23.368835 -70.04 -69.96 -0.659 -0.633 -19.5981 -18.7815 0.3099 -0.0997 -1.121257 -0.659729 12.04 
4.054 3 5.329556 -0.575391 -8.849028 16.098022 -5.668640 -23.948669 -70.04 -69.96 1.083 0.817 -23.7240 -21.1292 0.3079 -0.0958 -1.116066 -0.542091 12.13 
4.061 3 7.465693 0.179810 -12.181499 12.413025 -1.052856 -18.020630 -70.04 -69.96 -0.025 -0.215 -20.1831 -16.6947 0.3062 -0.0923 -1.113471 -0.549830 12.01 
4.068 3 5.713149 -1.570337 -11.747559 11.093140 6.996155 -16.441345 69.96 70.04 0.222 0.101 -19.3181 -13.7987 0.3046 -0.0891 -1.108280 -0.452649 11.41 
