%  1    time 0.000 sec
%  2    mission (0) state 2
%  3  4 Motor velocity ref left, right: -3.00 -3.00
%  5  6 Motor voltage [V] left, right: -3.0 -3.0
%  7 10 Motor current left, right [A]: -0.002 0.002 675 680
% 11 12 Encoder left, right: 7835 6796
% 13 14 Wheel velocity [r/s] left, right: -0.0083 0.0000
% 15    Battery voltage [V]: 12.06
0.001 2 -3.00 -3.00 -3.0 -3.0 -0.047 0.062 636 716 7835 6796 -0.0083 0.0000 11.96 
0.002 2 -3.00 -3.00 -3.0 -3.0 -0.098 0.290 591 756 7835 6796 -0.0083 0.0000 11.96 
0.003 2 -3.00 -3.00 -3.0 -3.0 -0.127 0.431 573 776 7835 6795 -0.0083 0.0000 11.96 
0.004 2 -3.00 -3.00 -3.0 -3.0 -0.136 0.489 560 785 7835 6795 -0.0083 0.0000 11.96 
0.005 2 -3.00 -3.00 -3.0 -3.0 -0.138 0.509 558 788 7835 6795 -0.0083 0.0000 11.96 
0.006 2 -3.00 -3.00 -3.0 -3.0 -0.141 0.504 557 781 7834 6795 -0.0083 0.0000 11.96 
0.007 2 -3.00 -3.00 -3.0 -3.0 -0.136 0.491 563 777 7834 6795 -0.0083 0.0000 11.96 
0.008 2 -3.00 -3.00 -3.0 -3.0 -0.134 0.469 566 780 7834 6794 -0.0083 -3.0050 11.96 
0.009 2 -3.00 -3.00 -3.0 -3.0 -0.138 0.435 568 773 7833 6794 -4.0854 -3.0050 11.96 
0.010 2 -3.00 -3.00 -3.0 -3.0 -0.141 0.395 559 769 7833 6793 -4.0854 -5.4970 11.96 
0.011 2 -3.00 -3.00 -3.0 -3.0 -0.132 0.371 569 760 7832 6793 -4.0854 -5.4970 11.91 
0.012 2 -3.00 -3.00 -3.0 -3.0 -0.125 0.353 571 757 7832 6792 -5.7058 -6.8296 11.91 
0.013 2 -3.00 -3.00 -3.0 -3.0 -0.132 0.346 565 759 7832 6792 -5.7058 -6.8296 11.91 
0.014 2 -3.00 -3.00 -3.0 -3.0 -0.129 0.333 569 759 7831 6791 -6.6288 -6.8643 11.91 
0.015 2 -3.00 -3.00 -3.0 -3.0 -0.129 0.333 571 762 7830 6791 -6.6288 -6.8643 11.91 
0.016 2 -3.00 -3.00 -3.0 -3.0 -0.125 0.335 575 756 7830 6790 -7.3493 -7.9080 11.91 
0.017 2 -3.00 -3.00 -3.0 -3.0 -0.123 0.337 575 757 7829 6789 -8.2455 -7.9080 11.91 
0.018 2 -3.00 -3.00 -3.0 -3.0 -0.116 0.306 575 754 7829 6789 -8.2455 -9.0151 11.91 
0.019 2 -3.00 -3.00 -3.0 -3.0 -0.118 0.248 582 747 7828 6788 -8.6132 -9.5906 11.91 
0.020 2 -3.00 -3.00 -3.0 -3.0 -0.112 0.263 591 752 7827 6787 -9.8706 -9.3908 11.91 
0.021 2 -3.00 -3.00 -3.0 -3.0 -0.105 0.268 600 751 7826 6787 -11.0842 -9.3908 11.98 
0.022 2 -3.00 -3.00 -3.0 -3.0 -0.100 0.268 599 749 7826 6786 -11.0842 -10.5646 11.98 
0.023 2 -3.00 -3.00 -3.0 -3.0 -0.114 0.259 589 748 7825 6785 -10.7323 -10.9941 11.98 
0.024 2 -3.00 -3.00 -3.0 -3.0 -0.094 0.250 594 746 7824 6784 -11.5579 -11.3636 11.98 
0.025 2 -3.00 -3.00 -3.0 -3.0 -0.103 0.241 591 749 7823 6783 -11.4599 -11.6575 11.98 
0.026 2 -3.00 -3.00 -3.0 -3.0 -0.100 0.234 601 746 7822 6782 -11.9670 -12.1826 11.99 
0.027 2 -3.00 -3.00 -3.0 -3.0 -0.096 0.243 603 743 7821 6781 -12.0738 -13.5227 11.99 
0.028 2 -3.00 -3.00 -3.0 -3.0 -0.089 0.194 603 739 7820 6780 -11.5579 -13.1288 11.99 
0.029 2 -3.00 -3.00 -3.0 -3.0 -0.092 0.172 602 740 7819 6779 -11.3636 -13.0026 11.99 
0.030 2 -3.00 -3.00 -3.0 -3.0 -0.087 0.172 605 742 7818 6778 -13.7987 -12.7573 11.99 
0.031 2 -3.00 -3.00 -3.0 -3.0 -0.083 0.161 609 740 7817 6777 -13.7987 -13.5227 11.99 
0.032 2 -3.00 -3.00 -3.0 -3.0 -0.080 0.141 615 735 7816 6776 -13.2575 -13.9409 11.99 
0.033 2 -3.00 -3.00 -3.0 -3.0 -0.087 0.134 613 726 7815 6775 -13.6593 -14.2344 11.99 
0.034 2 -3.00 -3.00 -3.0 -3.0 -0.087 0.138 609 731 7814 6774 -14.5405 -14.3858 11.99 
0.035 2 -3.00 -3.00 -3.0 -3.0 -0.083 0.154 610 734 7813 6773 -14.5405 -14.3858 11.99 
0.036 2 -3.00 -3.00 -3.0 -3.0 -0.083 0.094 610 726 7812 6772 -14.5405 -14.8601 12.01 
0.037 2 -3.00 -3.00 -3.0 -3.0 -0.083 0.105 614 731 7811 6771 -14.8601 -15.7241 12.01 
0.038 2 -3.00 -3.00 -3.0 -3.0 -0.078 0.105 616 723 7810 6770 -15.0252 -15.5433 12.01 
0.039 2 -3.00 -3.00 -3.0 -3.0 -0.078 0.094 612 724 7808 6768 -15.1940 -15.1940 12.01 
0.040 2 -3.00 -3.00 -3.0 -3.0 -0.078 0.094 617 724 7807 6767 -15.7241 -15.9091 12.01 
0.041 2 -3.00 -3.00 -3.0 -3.0 -0.069 0.092 620 727 7806 6766 -15.7241 -15.9091 11.94 
0.042 2 -3.00 -3.00 -3.0 -3.0 -0.069 0.129 625 737 7805 6765 -15.9091 -15.7241 11.94 
0.043 2 -3.00 -3.00 -3.0 -3.0 -0.069 0.078 629 724 7804 6764 -15.9091 -15.9091 11.94 
0.044 2 -3.00 -3.00 -3.0 -3.0 -0.065 0.096 625 724 7803 6763 -16.2924 -15.9091 11.94 
0.045 2 -3.00 -3.00 -3.0 -3.0 -0.065 0.098 630 727 7801 6761 -16.2924 -16.0984 11.94 
0.046 2 -3.00 -3.00 -3.0 -3.0 -0.062 0.096 623 723 7800 6760 -16.4911 -16.9034 11.96 
0.047 2 -3.00 -3.00 -3.0 -3.0 -0.069 0.096 616 730 7799 6759 -16.6947 -16.9034 11.96 
0.048 2 -3.00 -3.00 -3.0 -3.0 -0.067 0.103 615 726 7798 6758 -16.6947 -16.9034 11.96 
0.049 2 -3.00 -3.00 -3.0 -3.0 -0.065 0.067 620 719 7796 6756 -16.9034 -16.0984 11.96 
0.050 2 -3.00 -3.00 -3.0 -3.0 -0.062 0.060 625 721 7795 6755 -17.5619 -18.2739 11.96 
0.051 2 -3.00 -3.00 -3.0 -3.0 -0.060 0.062 624 725 7794 6754 -17.5619 -18.0303 12.01 
0.052 2 -3.00 -3.00 -3.0 -3.0 -0.062 0.049 629 724 7792 6752 -17.7930 -17.3368 12.01 
0.053 2 -3.00 -3.00 -3.0 -3.0 -0.065 0.040 630 713 7791 6751 -18.0303 -18.2739 12.01 
0.054 2 -3.00 -3.00 -3.0 -3.0 -0.060 0.049 632 715 7790 6750 -18.0303 -18.2739 12.01 
0.055 2 -3.00 -3.00 -3.0 -3.0 -0.060 0.051 635 717 7788 6748 -18.0303 -18.2739 12.01 
0.056 2 -3.00 -3.00 -3.0 -3.0 -0.058 0.047 633 720 7787 6747 -18.0303 -18.5242 11.98 
0.057 2 -3.00 -3.00 -3.0 -3.0 -0.056 0.045 632 722 7786 6746 -17.7930 -18.7815 11.98 
0.058 2 -3.00 -3.00 -3.0 -3.0 -0.058 0.022 626 713 7784 6744 -18.0303 -19.0460 11.98 
0.059 2 -3.00 -3.00 -3.0 -3.0 -0.062 0.018 624 712 7783 6743 -18.5242 -18.7815 11.98 
0.060 2 -3.00 -3.00 -3.0 -3.0 -0.069 0.038 620 717 7782 6741 -18.5242 -18.7815 11.98 
0.061 2 -3.00 -3.00 -3.0 -3.0 -0.062 0.025 629 715 7780 6740 -18.5242 -18.7815 11.94 
0.062 2 -3.00 -3.00 -3.0 -3.0 -0.062 0.033 637 722 7779 6739 -18.7815 -18.0303 11.94 
0.063 2 -3.00 -3.00 -3.0 -3.0 -0.056 0.038 633 720 7777 6737 -19.5981 -18.5242 11.94 
0.064 2 -3.00 -3.00 -3.0 -3.0 -0.058 0.036 629 711 7776 6736 -19.8863 -19.0460 11.94 
0.065 2 -3.00 -3.00 -3.0 -3.0 -0.060 0.045 625 714 7774 6734 -19.8863 -19.0460 11.94 
0.066 2 -3.00 -3.00 -3.0 -3.0 -0.060 0.067 624 727 7773 6733 -19.8863 -20.1831 11.98 
0.067 2 -3.00 -3.00 -3.0 -3.0 -0.058 0.031 635 721 7772 6732 -18.7815 -19.8863 11.98 
0.068 2 -3.00 -3.00 -3.0 -3.0 -0.056 0.027 634 718 7770 6730 -20.1831 -19.5981 11.98 
0.069 2 -3.00 -3.00 -3.0 -3.0 -0.056 0.020 635 710 7769 6729 -20.1831 -19.5981 11.98 
0.070 2 -3.00 -3.00 -3.0 -3.0 -0.056 0.013 635 712 7767 6727 -19.5981 -19.8863 11.98 
0.071 2 -3.00 -3.00 -3.0 -3.0 -0.056 0.020 634 713 7766 6726 -20.8041 -19.8863 11.99 
0.072 2 -3.00 -3.00 -3.0 -3.0 -0.056 0.018 638 713 7764 6724 -20.4889 -20.1831 11.99 
0.073 2 -3.00 -3.00 -3.0 -3.0 -0.051 0.007 638 708 7763 6723 -20.4889 -20.8041 11.99 
0.074 2 -3.00 -3.00 -3.0 -3.0 -0.051 0.004 638 706 7761 6721 -20.1831 -19.8863 11.99 
0.075 2 -3.00 -3.00 -3.0 -3.0 -0.054 0.002 634 706 7760 6720 -20.8041 -20.4889 11.99 
0.076 2 -3.00 -3.00 -3.0 -3.0 -0.051 0.004 637 708 7758 6718 -20.4889 -20.4889 12.01 
0.077 2 -3.00 -3.00 -3.0 -3.0 -0.047 0.022 641 720 7757 6717 -20.8041 -20.4889 12.01 
0.078 2 -3.00 -3.00 -3.0 -3.0 -0.047 0.004 644 706 7755 6715 -20.8041 -20.8041 12.01 
0.079 2 -3.00 -3.00 -3.0 -3.0 -0.049 0.002 644 708 7754 6713 -20.8041 -20.8041 12.01 
0.080 2 -3.00 -3.00 -3.0 -3.0 -0.054 0.004 636 710 7752 6712 -20.4889 -21.4646 12.01 
0.081 2 -3.00 -3.00 -3.0 -3.0 -0.054 0.004 633 712 7751 6710 -20.8041 -21.4646 12.02 
0.082 2 -3.00 -3.00 -3.0 -3.0 -0.054 0.018 637 716 7749 6709 -20.4889 -19.8863 12.02 
0.083 2 -3.00 -3.00 -3.0 -3.0 -0.049 0.004 636 704 7748 6707 -20.8041 -20.8041 12.02 
0.084 2 -3.00 -3.00 -3.0 -3.0 -0.047 0.002 637 710 7746 6706 -20.8041 -21.4646 12.02 
0.085 2 -3.00 -3.00 -3.0 -3.0 -0.051 0.002 636 709 7745 6704 -20.8041 -20.1831 12.02 
0.086 2 -3.00 -3.00 -3.0 -3.0 -0.049 0.002 637 712 7743 6703 -21.1292 -20.8041 11.98 
0.087 2 -3.00 -3.00 -3.0 -3.0 -0.047 0.016 640 718 7741 6701 -21.1292 -20.8041 11.98 
0.088 2 -3.00 -3.00 -3.0 -3.0 -0.045 0.011 641 706 7740 6700 -21.1292 -20.8041 11.98 
0.089 2 -3.00 -3.00 -3.0 -3.0 -0.047 0.009 640 710 7738 6698 -21.4646 -20.8041 11.98 
0.090 2 -3.00 -3.00 -3.0 -3.0 -0.047 0.004 639 710 7737 6697 -21.1292 -21.1292 11.98 
0.091 2 -3.00 -3.00 -3.0 -3.0 -0.047 0.002 636 707 7735 6695 -21.4646 -20.8041 11.99 
0.092 2 -3.00 -3.00 -3.0 -3.0 -0.056 0.004 630 708 7734 6694 -21.1292 -21.1292 11.99 
0.093 2 -3.00 -3.00 -3.0 -3.0 -0.054 0.002 637 700 7732 6692 -21.1292 -21.8108 11.99 
0.094 2 -3.00 -3.00 -3.0 -3.0 -0.045 0.004 640 707 7730 6690 -21.4646 -21.1292 11.99 
0.095 2 -3.00 -3.00 -3.0 -3.0 -0.049 0.004 639 705 7729 6689 -22.1684 -21.8108 11.99 
0.096 2 -3.00 -3.00 -3.0 -3.0 -0.051 0.004 637 713 7727 6687 -22.1684 -21.8108 12.01 
0.097 2 -3.00 -3.00 -3.0 -3.0 -0.049 0.004 638 708 7726 6685 -22.1684 -21.8108 12.01 
0.098 2 -3.00 -3.00 -3.0 -3.0 -0.045 0.009 645 706 7724 6684 -20.8041 -22.5378 12.01 
0.099 2 -3.00 -3.00 -3.0 -3.0 -0.045 0.004 640 707 7722 6682 -21.4646 -21.8108 12.01 
0.100 2 -3.00 -3.00 -3.0 -3.0 -0.047 0.004 636 707 7721 6681 -22.1684 -21.4646 12.01 
0.101 2 -3.00 -3.00 -3.0 -3.0 -0.051 0.004 637 709 7719 6679 -21.8108 -22.1684 11.98 
0.102 2 -3.00 -3.00 -3.0 -3.0 -0.051 0.002 634 703 7718 6677 -22.9198 -22.1684 11.98 
0.103 2 -3.00 -3.00 -3.0 -3.0 -0.047 0.002 638 703 7716 6676 -22.1684 -22.1684 11.98 
0.104 2 -3.00 -3.00 -3.0 -3.0 -0.047 0.002 640 705 7714 6674 -22.1684 -22.5378 11.98 
0.105 2 -3.00 -3.00 -3.0 -3.0 -0.047 0.004 642 706 7713 6672 -22.1684 -21.4646 11.98 
0.106 2 -3.00 -3.00 -3.0 -3.0 -0.045 0.002 641 708 7711 6671 -22.5378 -21.8108 11.98 
0.107 2 -3.00 -3.00 -3.0 -3.0 -0.045 0.004 647 708 7709 6669 -22.5378 -21.8108 11.98 
0.108 2 -3.00 -3.00 -3.0 -3.0 -0.040 0.004 649 705 7708 6668 -22.1684 -21.8108 11.98 
0.109 2 -3.00 -3.00 -3.0 -3.0 -0.042 0.004 649 705 7706 6666 -22.1684 -21.8108 11.98 
0.110 2 -3.00 -3.00 -3.0 -3.0 -0.049 0.002 643 711 7704 6664 -22.1684 -22.9198 11.98 
0.111 2 -3.00 -3.00 -3.0 -3.0 -0.049 0.002 636 712 7703 6663 -22.1684 -22.1684 11.99 
0.112 2 -3.00 -3.00 -3.0 -3.0 -0.049 0.004 633 713 7701 6661 -21.8108 -20.8041 11.99 
0.113 2 -3.00 -3.00 -3.0 -3.0 -0.047 0.004 639 701 7700 6660 -22.1684 -21.8108 11.99 
0.114 2 -3.00 -3.00 -3.0 -3.0 -0.038 0.002 645 702 7698 6658 -22.5378 -22.9198 11.99 
0.115 2 -3.00 -3.00 -3.0 -3.0 -0.045 0.002 640 703 7696 6656 -22.5378 -21.8108 11.99 
0.116 2 -3.00 -3.00 -3.0 -3.0 -0.047 0.007 645 702 7695 6655 -22.5378 -22.9198 11.98 
0.117 2 -3.00 -3.00 -3.0 -3.0 -0.040 0.004 645 710 7693 6653 -22.5378 -22.5378 11.98 
0.118 2 -3.00 -3.00 -3.0 -3.0 -0.038 0.002 650 704 7691 6651 -22.5378 -22.9198 11.98 
0.119 2 -3.00 -3.00 -3.0 -3.0 -0.042 0.002 649 705 7690 6650 -21.8108 -22.9198 11.98 
0.120 2 -3.00 -3.00 -3.0 -3.0 -0.042 0.004 643 705 7688 6648 -22.5378 -22.9198 11.98 
0.121 2 -3.00 -3.00 -3.0 -3.0 -0.045 0.004 639 704 7686 6646 -22.9198 -22.5378 11.98 
0.122 2 -3.00 -3.00 -3.0 -3.0 -0.051 0.004 637 708 7685 6645 -22.5378 -22.9198 11.98 
0.123 2 -3.00 -3.00 -3.0 -3.0 -0.045 0.004 646 701 7683 6643 -22.5378 -22.1684 11.98 
0.124 2 -3.00 -3.00 -3.0 -3.0 -0.045 0.007 646 699 7681 6641 -23.3150 -22.5378 11.98 
0.125 2 -3.00 -3.00 -3.0 -3.0 -0.047 0.007 639 704 7680 6640 -23.3150 -23.3150 11.98 
0.126 2 -3.00 -3.00 -3.0 -3.0 -0.049 0.004 635 706 7678 6638 -22.9198 -22.9198 12.04 
0.127 2 -3.00 -3.00 -3.0 -3.0 -0.049 0.007 629 712 7676 6636 -22.5378 -23.3150 12.04 
0.128 2 -3.00 -3.00 -3.0 -3.0 -0.042 0.002 641 703 7675 6635 -22.1684 -22.5378 12.04 
0.129 2 -3.00 -3.00 -3.0 -3.0 -0.038 0.004 643 703 7673 6633 -22.9198 -22.1684 12.04 
0.130 2 -3.00 -3.00 -3.0 -3.0 -0.045 0.002 643 702 7671 6631 -22.1684 -22.5378 12.04 
0.131 2 -3.00 -3.00 -3.0 -3.0 -0.049 0.004 643 707 7670 6630 -23.3150 -22.5378 12.02 
0.132 2 -3.00 -3.00 -3.0 -3.0 -0.042 0.009 648 708 7668 6628 -22.9198 -22.5378 12.02 
0.133 2 -3.00 -3.00 -3.0 -3.0 -0.045 0.004 646 702 7666 6626 -22.9198 -23.3150 12.02 
0.134 2 -3.00 -3.00 -3.0 -3.0 -0.042 0.004 639 698 7665 6625 -22.5378 -22.1684 12.02 
0.135 2 -3.00 -3.00 -3.0 -3.0 -0.049 0.007 638 702 7663 6623 -23.3150 -22.5378 12.02 
0.136 2 -3.00 -3.00 -3.0 -3.0 -0.045 0.002 649 705 7661 6621 -22.9198 -22.5378 12.02 
0.137 2 -3.00 -3.00 -3.0 -3.0 -0.040 0.004 649 705 7660 6620 -22.5378 -22.9198 12.02 
0.138 2 -3.00 -3.00 -3.0 -3.0 -0.042 0.002 647 710 7658 6618 -22.9198 -22.9198 12.02 
0.139 2 -3.00 -3.00 -3.0 -3.0 -0.040 0.004 642 708 7656 6616 -22.9198 -23.7240 12.02 
0.140 2 -3.00 -3.00 -3.0 -3.0 -0.045 0.004 640 699 7655 6614 -22.9198 -23.3150 12.02 
0.141 2 -3.00 -3.00 -3.0 -3.0 -0.047 0.002 643 704 7653 6613 -22.9198 -21.8108 11.98 
0.142 2 -3.00 -3.00 -3.0 -3.0 -0.042 0.004 650 703 7651 6611 -22.9198 -24.1477 11.98 
0.143 2 -3.00 -3.00 -3.0 -3.0 -0.042 0.004 651 705 7650 6609 -22.9198 -23.7240 11.98 
0.144 2 -3.00 -3.00 -3.0 -3.0 -0.045 0.007 645 704 7648 6608 -22.9198 -22.9198 11.98 
0.145 2 -3.00 -3.00 -3.0 -3.0 -0.045 0.004 643 706 7646 6606 -23.3150 -23.3150 11.98 
0.146 2 -3.00 -3.00 -3.0 -3.0 -0.042 0.002 642 706 7644 6604 -22.9198 -22.9198 12.01 
0.147 2 -3.00 -3.00 -3.0 -3.0 -0.040 0.002 645 705 7643 6603 -23.3150 -23.3150 12.01 
0.149 2 -3.00 -3.00 -3.0 -3.0 -0.038 0.007 644 702 7641 6600 -22.9198 -23.3150 12.01 
0.149 2 -3.00 -3.00 -3.0 -3.0 -0.045 0.007 640 700 7639 6599 -23.3150 -22.9198 12.01 
0.150 2 -3.00 -3.00 -3.0 -3.0 -0.051 0.004 641 705 7638 6598 -22.9198 -22.9198 12.01 
0.151 2 -3.00 -3.00 -3.0 -3.0 -0.045 0.004 649 704 7636 6596 -22.5378 -23.3150 11.99 
0.152 2 -3.00 -3.00 -3.0 -3.0 -0.045 0.004 648 696 7634 6594 -23.3150 -22.9198 11.99 
0.153 2 -3.00 -3.00 -3.0 -3.0 -0.045 0.007 644 700 7632 6592 -23.7240 -23.3150 11.99 
0.154 2 -3.00 -3.00 -3.0 -3.0 -0.047 0.007 643 703 7631 6591 -23.7240 -22.9198 11.99 
0.155 2 -3.00 -3.00 -3.0 -3.0 -0.047 0.004 646 707 7629 6589 -23.7240 -23.7240 11.99 
0.156 2 -3.00 -3.00 -3.0 -3.0 -0.045 0.004 647 712 7627 6587 -22.1684 -23.3150 12.01 
0.157 2 -3.00 -3.00 -3.0 -3.0 -0.042 0.002 643 703 7626 6586 -24.1477 -22.5378 12.01 
0.158 2 -3.00 -3.00 -3.0 -3.0 -0.045 0.002 646 704 7624 6584 -22.9198 -22.5378 12.01 
0.159 2 -3.00 -3.00 -3.0 -3.0 -0.047 0.007 643 704 7622 6582 -24.1477 -22.9198 12.01 
0.160 2 -3.00 -3.00 -3.0 -3.0 -0.047 0.002 642 708 7620 6581 -23.7240 -22.5378 12.01 
0.161 2 -3.00 -3.00 -3.0 -3.0 -0.045 0.004 646 708 7619 6579 -23.3150 -23.7240 12.02 
0.162 2 -3.00 -3.00 -3.0 -3.0 -0.042 0.007 644 701 7617 6577 -22.9198 -23.3150 12.02 
0.163 2 -3.00 -3.00 -3.0 -3.0 -0.045 0.007 641 698 7615 6576 -23.3150 -23.3150 12.02 
0.164 2 -3.00 -3.00 -3.0 -3.0 -0.045 0.007 641 701 7614 6574 -22.9198 -23.3150 12.02 
0.165 2 -3.00 -3.00 -3.0 -3.0 -0.042 0.004 654 705 7612 6572 -22.9198 -23.3150 12.02 
0.166 2 -3.00 -3.00 -3.0 -3.0 -0.040 0.004 649 706 7610 6570 -23.3150 -23.3150 12.04 
0.167 2 -3.00 -3.00 -3.0 -3.0 -0.038 0.007 647 702 7609 6569 -23.3150 -24.1477 12.04 
0.168 2 -3.00 -3.00 -3.0 -3.0 -0.042 0.007 642 699 7607 6567 -23.3150 -23.7240 12.04 
0.169 2 -3.00 -3.00 -3.0 -3.0 -0.047 0.002 644 704 7605 6565 -23.3150 -23.3150 12.04 
0.170 2 -3.00 -3.00 -3.0 -3.0 -0.045 0.004 641 702 7603 6564 -23.3150 -22.9198 12.04 
0.171 2 -3.00 -3.00 -3.0 -3.0 -0.042 0.004 648 704 7602 6562 -23.3150 -23.7240 12.04 
0.172 2 -3.00 -3.00 -3.0 -3.0 -0.038 0.004 643 706 7600 6560 -23.3150 -22.5378 12.04 
0.173 2 -3.00 -3.00 -3.0 -3.0 -0.042 0.004 645 699 7598 6558 -23.3150 -23.7240 12.04 
0.174 2 -3.00 -3.00 -3.0 -3.0 -0.042 0.002 650 703 7597 6557 -23.3150 -23.3150 12.04 
0.175 2 -3.00 -3.00 -3.0 -3.0 -0.040 0.004 650 705 7595 6555 -23.7240 -23.7240 12.04 
0.176 2 -3.00 -3.00 -3.0 -3.0 -0.042 0.004 649 709 7593 6553 -23.3150 -23.3150 11.96 
0.177 2 -3.00 -3.00 -3.0 -3.0 -0.045 0.009 642 702 7591 6552 -23.7240 -23.7240 11.96 
0.178 2 -3.00 -3.00 -3.0 -3.0 -0.051 0.007 640 698 7590 6550 -23.3150 -22.9198 11.96 
0.179 2 -3.00 -3.00 -3.0 -3.0 -0.042 0.004 649 701 7588 6548 -22.9198 -23.3150 11.96 
0.180 2 -3.00 -3.00 -3.0 -3.0 -0.042 0.004 650 705 7586 6547 -23.3150 -22.1684 11.96 
0.181 2 -3.00 -3.00 -3.0 -3.0 -0.045 0.004 645 706 7584 6545 -23.7240 -22.9198 11.99 
0.182 2 -3.00 -3.00 -3.0 -3.0 -0.047 0.004 639 704 7583 6543 -24.1477 -22.9198 11.99 
0.183 2 -3.00 -3.00 -3.0 -3.0 -0.042 0.002 640 703 7581 6542 -23.7240 -22.5378 11.99 
0.184 2 -3.00 -3.00 -3.0 -3.0 -0.042 0.007 644 707 7579 6540 -22.5378 -23.3150 11.99 
0.185 2 -3.00 -3.00 -3.0 -3.0 -0.036 0.004 649 708 7578 6538 -24.5867 -22.9198 11.99 
0.186 2 -3.00 -3.00 -3.0 -3.0 -0.042 0.004 644 706 7576 6536 -23.3150 -22.9198 12.01 
0.187 2 -3.00 -3.00 -3.0 -3.0 -0.047 0.004 643 699 7574 6535 -24.5867 -23.3150 12.01 
0.188 2 -3.00 -3.00 -3.0 -3.0 -0.045 0.002 645 702 7572 6533 -24.1477 -22.9198 12.01 
0.189 2 -3.00 -3.00 -3.0 -3.0 -0.040 0.007 647 700 7571 6531 -23.7240 -23.3150 12.01 
0.190 2 -3.00 -3.00 -3.0 -3.0 -0.042 0.004 647 704 7569 6530 -23.3150 -23.7240 12.01 
0.191 2 -3.00 -3.00 -3.0 -3.0 -0.047 0.007 648 706 7567 6528 -24.1477 -23.3150 11.99 
0.192 2 -3.00 -3.00 -3.0 -3.0 -0.042 0.007 648 702 7565 6526 -23.7240 -23.3150 11.99 
0.193 2 -3.00 -3.00 -3.0 -3.0 -0.036 0.004 647 700 7564 6524 -23.7240 -23.3150 11.99 
0.194 2 -3.00 -3.00 -3.0 -3.0 -0.038 0.007 645 703 7562 6523 -23.7240 -23.7240 11.99 
0.195 2 -3.00 -3.00 -3.0 -3.0 -0.042 0.004 647 706 7560 6521 -23.7240 -24.5867 11.99 
0.196 2 -3.00 -3.00 -3.0 -3.0 -0.045 0.004 641 709 7558 6519 -23.7240 -23.7240 11.99 
0.197 2 -3.00 -3.00 -3.0 -3.0 -0.045 0.002 642 703 7557 6518 -23.3150 -23.3150 11.99 
0.198 2 -3.00 -3.00 -3.0 -3.0 -0.045 0.004 647 702 7555 6516 -23.7240 -23.3150 11.99 
0.199 2 -3.00 -3.00 -3.0 -3.0 -0.040 0.004 649 705 7553 6514 -23.7240 -24.1477 11.99 
0.200 2 -3.00 -3.00 -3.0 -3.0 -0.042 0.007 645 702 7552 6512 -23.7240 -22.9198 11.99 
0.201 2 -3.00 -3.00 -3.0 -3.0 -0.042 0.007 648 703 7550 6511 -23.7240 -23.3150 11.99 
0.202 2 -3.00 -3.00 -3.0 -3.0 -0.038 0.002 655 704 7548 6509 -23.7240 -22.9198 11.99 
0.203 2 -3.00 -3.00 -3.0 -3.0 -0.040 0.004 651 708 7546 6507 -23.7240 -22.9198 11.99 
0.204 2 -3.00 -3.00 -3.0 -3.0 -0.042 0.002 645 708 7545 6506 -23.3150 -22.9198 11.99 
0.205 2 -3.00 -3.00 -3.0 -3.0 -0.047 0.007 637 704 7543 6504 -23.7240 -23.3150 11.99 
0.206 2 -3.00 -3.00 -3.0 -3.0 -0.047 0.007 640 702 7541 6502 -23.7240 -22.5378 12.04 
0.207 2 -3.00 -3.00 -3.0 -3.0 -0.042 0.004 646 701 7539 6501 -23.3150 -23.3150 12.04 
0.208 2 -3.00 -3.00 -3.0 -3.0 -0.045 0.004 646 705 7538 6499 -24.5867 -22.5378 12.04 
0.209 2 -3.00 -3.00 -3.0 -3.0 -0.047 0.004 646 703 7536 6497 -24.5867 -22.5378 12.04 
0.210 2 -3.00 -3.00 -3.0 -3.0 -0.045 0.004 645 705 7534 6496 -24.1477 -23.3150 12.04 
0.211 2 -3.00 -3.00 -3.0 -3.0 -0.042 0.004 647 709 7532 6494 -23.7240 -23.3150 12.01 
0.212 2 -3.00 -3.00 -3.0 -3.0 -0.042 0.004 645 702 7531 6492 -23.3150 -24.1477 12.01 
0.213 2 -3.00 -3.00 -3.0 -3.0 -0.042 0.002 647 704 7529 6490 -24.1477 -23.3150 12.01 
0.214 2 -3.00 -3.00 -3.0 -3.0 -0.042 0.004 649 705 7527 6489 -23.3150 -22.9198 12.01 
0.215 2 -3.00 -3.00 -3.0 -3.0 -0.042 0.007 641 705 7525 6487 -24.5867 -23.7240 12.01 
0.216 2 -3.00 -3.00 -3.0 -3.0 -0.042 0.002 643 705 7524 6485 -23.7240 -22.9198 11.96 
0.217 2 -3.00 -3.00 -3.0 -3.0 -0.042 0.004 645 697 7522 6483 -23.7240 -23.7240 11.96 
0.218 2 -3.00 -3.00 -3.0 -3.0 -0.042 0.004 647 702 7520 6482 -24.1477 -24.1477 11.96 
0.219 2 -3.00 -3.00 -3.0 -3.0 -0.045 0.004 644 700 7518 6480 -24.1477 -23.7240 11.96 
0.220 2 -3.00 -3.00 -3.0 -3.0 -0.042 0.009 652 704 7517 6478 -23.7240 -23.7240 11.96 
0.221 2 -3.00 -3.00 -3.0 -3.0 -0.040 0.002 655 702 7515 6476 -24.1477 -23.7240 12.02 
0.222 2 -3.00 -3.00 -3.0 -3.0 -0.040 0.004 652 700 7513 6475 -23.7240 -23.7240 12.02 
0.223 2 -3.00 -3.00 -3.0 -3.0 -0.040 0.007 647 701 7511 6473 -23.7240 -24.5867 12.02 
0.224 2 -3.00 -3.00 -3.0 -3.0 -0.040 0.004 642 705 7510 6471 -23.3150 -24.1477 12.02 
0.225 2 -3.00 -3.00 -3.0 -3.0 -0.045 0.002 646 705 7508 6470 -23.7240 -23.3150 12.02 
0.226 2 -3.00 -3.00 -3.0 -3.0 -0.042 0.004 649 701 7506 6468 -23.7240 -22.9198 12.01 
0.227 2 -3.00 -3.00 -3.0 -3.0 -0.042 0.004 649 701 7504 6466 -23.7240 -24.1477 12.01 
0.228 2 -3.00 -3.00 -3.0 -3.0 -0.038 0.007 644 702 7503 6464 -24.1477 -22.9198 12.01 
0.229 2 -3.00 -3.00 -3.0 -3.0 -0.040 0.007 645 704 7501 6463 -23.7240 -23.7240 12.01 
0.230 2 -3.00 -3.00 -3.0 -3.0 -0.042 0.002 645 702 7499 6461 -23.7240 -23.3150 12.01 
0.231 2 -3.00 -3.00 -3.0 -3.0 -0.038 0.004 650 701 7497 6459 -23.3150 -23.7240 12.01 
0.232 2 -3.00 -3.00 -3.0 -3.0 -0.038 0.004 645 701 7496 6458 -24.1477 -23.3150 12.01 
0.233 2 -3.00 -3.00 -3.0 -3.0 -0.045 0.007 642 701 7494 6456 -23.7240 -23.3150 12.01 
0.234 2 -3.00 -3.00 -3.0 -3.0 -0.042 0.002 647 706 7492 6454 -23.7240 -22.5378 12.01 
0.235 2 -3.00 -3.00 -3.0 -3.0 -0.042 0.004 649 701 7490 6452 -23.7240 -22.9198 12.01 
0.236 2 -3.00 -3.00 -3.0 -3.0 -0.040 0.004 643 699 7489 6451 -24.1477 -22.1684 12.01 
0.237 2 -3.00 -3.00 -3.0 -3.0 -0.047 0.007 642 705 7487 6449 -24.5867 -22.9198 12.01 
0.238 2 -3.00 -3.00 -3.0 -3.0 -0.042 0.004 646 707 7485 6447 -24.1477 -23.3150 12.01 
0.239 2 -3.00 -3.00 -3.0 -3.0 -0.045 0.002 646 705 7483 6446 -22.9198 -22.9198 12.01 
0.240 2 -3.00 -3.00 -3.0 -3.0 -0.042 0.004 643 705 7482 6444 -24.5867 -23.7240 12.01 
0.241 2 -3.00 -3.00 -3.0 -3.0 -0.042 0.002 642 704 7480 6442 -23.3150 -22.9198 11.96 
0.242 2 -3.00 -3.00 -3.0 -3.0 -0.040 0.004 639 703 7478 6441 -24.5867 -22.5378 11.96 
0.243 2 -3.00 -3.00 -3.0 -3.0 -0.045 0.004 647 706 7476 6439 -24.1477 -23.3150 11.96 
0.244 2 -3.00 -3.00 -3.0 -3.0 -0.040 0.004 651 707 7475 6437 -24.1477 -23.3150 11.96 
0.245 2 -3.00 -3.00 -3.0 -3.0 -0.042 0.007 652 699 7473 6435 -23.7240 -23.3150 11.96 
0.246 2 -3.00 -3.00 -3.0 -3.0 -0.042 0.007 645 700 7471 6434 -24.1477 -23.7240 12.01 
0.247 2 -3.00 -3.00 -3.0 -3.0 -0.040 0.009 646 704 7469 6432 -23.7240 -23.3150 12.01 
0.248 2 -3.00 -3.00 -3.0 -3.0 -0.042 0.007 649 704 7468 6430 -23.7240 -23.3150 12.01 
0.249 2 -3.00 -3.00 -3.0 -3.0 -0.040 0.002 652 703 7466 6429 -24.1477 -23.3150 12.01 
0.250 2 -3.00 -3.00 -3.0 -3.0 -0.040 0.004 644 699 7464 6427 -23.7240 -23.7240 12.01 
0.251 2 -3.00 -3.00 -3.0 -3.0 -0.045 0.004 637 704 7462 6425 -24.1477 -24.5867 12.01 
0.252 2 -3.00 -3.00 -3.0 -3.0 -0.042 0.004 640 702 7461 6423 -23.7240 -24.5867 12.01 
0.253 2 -3.00 -3.00 -3.0 -3.0 -0.042 0.004 650 706 7459 6422 -24.1477 -23.7240 12.01 
0.254 2 -3.00 -3.00 -3.0 -3.0 -0.040 0.004 649 701 7457 6420 -23.7240 -23.3150 12.01 
0.255 2 -3.00 -3.00 -3.0 -3.0 -0.042 0.004 649 700 7455 6418 -24.1477 -24.1477 12.01 
0.256 2 -3.00 -3.00 -3.0 -3.0 -0.042 0.007 644 701 7454 6416 -24.1477 -22.9198 12.02 
0.257 2 -3.00 -3.00 -3.0 -3.0 -0.042 0.004 649 704 7452 6415 -24.1477 -23.7240 12.02 
0.258 2 -3.00 -3.00 -3.0 -3.0 -0.042 0.007 651 706 7450 6413 -23.3150 -23.7240 12.02 
0.259 2 -3.00 -3.00 -3.0 -3.0 -0.040 0.002 650 705 7448 6411 -23.7240 -23.7240 12.02 
0.260 2 -3.00 -3.00 -3.0 -3.0 -0.049 0.004 644 696 7447 6410 -24.1477 -23.7240 12.02 
0.261 2 -3.00 -3.00 -3.0 -3.0 -0.045 0.009 643 697 7445 6408 -23.7240 -24.1477 12.01 
0.262 2 -3.00 -3.00 -3.0 -3.0 -0.042 0.004 645 699 7443 6406 -23.7240 -23.7240 12.01 
0.263 2 -3.00 -3.00 -3.0 -3.0 -0.042 0.004 642 701 7441 6404 -24.5867 -24.1477 12.01 
0.264 2 -3.00 -3.00 -3.0 -3.0 -0.045 0.007 640 703 7439 6403 -25.0420 -23.3150 12.01 
0.265 2 -3.00 -3.00 -3.0 -3.0 -0.042 0.007 645 700 7438 6401 -24.5867 -23.7240 12.01 
0.266 2 -3.00 -3.00 -3.0 -3.0 -0.042 0.007 651 700 7436 6399 -22.9198 -23.3150 12.01 
0.267 2 -3.00 -3.00 -3.0 -3.0 -0.036 0.002 648 703 7434 6397 -25.0420 -23.3150 12.01 
0.268 2 -3.00 -3.00 -3.0 -3.0 -0.045 0.004 642 705 7432 6396 -24.5867 -23.7240 12.01 
0.269 2 -3.00 -3.00 -3.0 -3.0 -0.045 0.004 646 701 7431 6394 -24.1477 -22.9198 12.01 
0.270 2 -3.00 -3.00 -3.0 -3.0 -0.040 0.004 646 702 7429 6392 -24.5867 -22.9198 12.01 
0.271 2 -3.00 -3.00 -3.0 -3.0 -0.036 0.002 648 707 7427 6391 -24.1477 -23.3150 11.99 
0.272 2 -3.00 -3.00 -3.0 -3.0 -0.040 0.002 645 708 7425 6389 -23.7240 -22.9198 11.99 
0.273 2 -3.00 -3.00 -3.0 -3.0 -0.042 0.004 642 698 7423 6387 -24.5867 -23.3150 11.99 
0.274 2 -3.00 -3.00 -3.0 -3.0 -0.042 0.007 647 700 7422 6386 -24.1477 -23.7240 11.99 
0.275 2 -3.00 -3.00 -3.0 -3.0 -0.042 0.004 655 701 7420 6384 -23.7240 -23.3150 11.99 
0.276 2 -3.00 -3.00 -3.0 -3.0 -0.040 0.004 652 703 7418 6382 -23.7240 -23.3150 12.01 
0.277 2 -3.00 -3.00 -3.0 -3.0 -0.045 0.004 644 710 7416 6380 -23.7240 -23.3150 12.01 
0.278 2 -3.00 -3.00 -3.0 -3.0 -0.042 0.007 642 699 7415 6379 -24.1477 -23.7240 12.01 
0.279 2 -3.00 -3.00 -3.0 -3.0 -0.045 0.007 643 697 7413 6377 -23.7240 -24.5867 12.01 
0.280 2 -3.00 -3.00 -3.0 -3.0 -0.040 0.004 653 702 7411 6375 -23.7240 -23.7240 12.01 
0.281 2 -3.00 -3.00 -3.0 -3.0 -0.040 0.004 651 706 7409 6373 -24.1477 -23.7240 12.01 
0.282 2 -3.00 -3.00 -3.0 -3.0 -0.042 0.004 642 703 7408 6372 -24.1477 -23.3150 12.01 
0.283 2 -3.00 -3.00 -3.0 -3.0 -0.045 0.007 645 707 7406 6370 -24.1477 -24.1477 12.01 
0.284 2 -3.00 -3.00 -3.0 -3.0 -0.042 0.007 648 699 7404 6368 -24.1477 -22.9198 12.01 
0.285 2 -3.00 -3.00 -3.0 -3.0 -0.042 0.007 651 699 7403 6366 -24.1477 -24.1477 12.01 
0.286 2 -3.00 -3.00 -3.0 -3.0 -0.045 0.004 645 706 7401 6365 -23.7240 -23.7240 12.02 
0.287 2 -3.00 -3.00 -3.0 -3.0 -0.047 0.004 641 704 7399 6363 -24.1477 -24.1477 12.02 
0.288 2 -3.00 -3.00 -3.0 -3.0 -0.040 0.007 639 706 7397 6361 -23.7240 -23.7240 12.02 
0.289 2 -3.00 -3.00 -3.0 -3.0 -0.042 0.007 646 697 7395 6359 -23.3150 -24.1477 12.02 
0.290 2 -3.00 -3.00 -3.0 -3.0 -0.045 0.004 653 699 7394 6358 -24.5867 -23.7240 12.02 
0.291 2 -3.00 -3.00 -3.0 -3.0 -0.042 0.007 647 700 7392 6356 -25.0420 -24.1477 12.01 
0.292 2 -3.00 -3.00 -3.0 -3.0 -0.038 0.004 644 703 7390 6354 -24.5867 -23.3150 12.01 
0.293 2 -3.00 -3.00 -3.0 -3.0 -0.040 0.007 650 701 7388 6352 -24.1477 -24.1477 12.01 
0.294 2 -3.00 -3.00 -3.0 -3.0 -0.042 0.007 650 709 7387 6351 -23.7240 -23.7240 12.01 
0.295 2 -3.00 -3.00 -3.0 -3.0 -0.042 0.002 645 702 7385 6349 -24.5867 -25.0420 12.01 
0.296 2 -3.00 -3.00 -3.0 -3.0 -0.042 0.004 640 701 7383 6347 -24.1477 -23.7240 12.01 
0.297 2 -3.00 -3.00 -3.0 -3.0 -0.045 0.002 640 704 7381 6345 -24.5867 -23.7240 12.01 
0.298 2 -3.00 -3.00 -3.0 -3.0 -0.036 0.004 648 704 7379 6344 -24.5867 -23.3150 12.01 
0.299 2 -3.00 -3.00 -3.0 -3.0 -0.042 0.004 650 707 7378 6342 -24.1477 -23.3150 12.01 
0.300 2 -3.00 -3.00 -3.0 -3.0 -0.042 0.004 640 706 7376 6340 -24.5867 -22.9198 12.01 
0.301 2 -3.00 -3.00 -3.0 -3.0 -0.040 0.007 645 699 7374 6339 -24.1477 -24.1477 12.01 
0.302 2 -3.00 -3.00 -3.0 -3.0 -0.040 0.004 653 700 7372 6337 -24.1477 -22.9198 12.01 
0.303 2 -3.00 -3.00 -3.0 -3.0 -0.040 0.007 658 702 7371 6335 -24.1477 -23.3150 12.01 
0.304 2 -3.00 -3.00 -3.0 -3.0 -0.040 0.007 650 703 7369 6334 -24.1477 -23.3150 12.01 
0.305 2 -3.00 -3.00 -3.0 -3.0 -0.042 0.007 644 704 7367 6332 -24.1477 -23.3150 12.01 
0.306 2 -3.00 -3.00 -3.0 -3.0 -0.045 0.004 645 705 7365 6330 -23.7240 -23.3150 11.98 
0.307 2 -3.00 -3.00 -3.0 -3.0 -0.040 0.009 647 699 7363 6328 -24.1477 -24.5867 11.98 
0.308 2 -3.00 -3.00 -3.0 -3.0 -0.040 0.004 650 700 7362 6327 -24.1477 -24.1477 11.98 
0.309 2 -3.00 -3.00 -3.0 -3.0 -0.045 0.002 648 706 7360 6325 -24.1477 -22.5378 11.98 
0.310 2 -3.00 -3.00 -3.0 -3.0 -0.042 0.004 649 705 7358 6323 -24.1477 -24.5867 11.98 
0.311 2 -3.00 -3.00 -3.0 -3.0 -0.038 0.007 649 706 7356 6321 -24.1477 -24.1477 12.01 
0.312 2 -3.00 -3.00 -3.0 -3.0 -0.045 0.007 653 704 7355 6320 -24.1477 -23.7240 12.01 
0.313 2 -3.00 -3.00 -3.0 -3.0 -0.042 0.007 650 700 7353 6318 -23.7240 -24.1477 12.01 
0.314 2 -3.00 -3.00 -3.0 -3.0 -0.042 0.007 647 698 7351 6316 -24.1477 -24.1477 12.01 
0.315 2 -3.00 -3.00 -3.0 -3.0 -0.045 0.004 647 701 7349 6314 -24.1477 -23.7240 12.01 
0.316 2 -3.00 -3.00 -3.0 -3.0 -0.045 0.007 647 698 7348 6313 -23.7240 -23.7240 12.04 
0.317 2 -3.00 -3.00 -3.0 -3.0 -0.042 0.007 647 699 7346 6311 -25.0420 -23.7240 12.04 
0.318 2 -3.00 -3.00 -3.0 -3.0 -0.042 0.007 647 705 7344 6309 -25.0420 -24.1477 12.04 
0.319 2 -3.00 -3.00 -3.0 -3.0 -0.045 0.007 644 698 7342 6307 -24.5867 -24.1477 12.04 
0.320 2 -3.00 -3.00 -3.0 -3.0 -0.042 0.007 647 699 7340 6306 -24.1477 -23.3150 12.04 
0.321 2 -3.00 -3.00 -3.0 -3.0 -0.038 0.007 648 700 7339 6304 -23.7240 -24.1477 12.02 
0.322 2 -3.00 -3.00 -3.0 -3.0 -0.040 0.009 647 703 7337 6302 -24.5867 -23.7240 12.02 
0.323 2 -3.00 -3.00 -3.0 -3.0 -0.040 0.004 641 706 7335 6300 -23.7240 -24.5867 12.02 
0.324 2 -3.00 -3.00 -3.0 -3.0 -0.042 0.004 643 706 7333 6298 -25.0420 -23.7240 12.02 
0.325 2 -3.00 -3.00 -3.0 -3.0 -0.042 0.007 648 704 7332 6297 -24.1477 -23.3150 12.02 
0.326 2 -3.00 -3.00 -3.0 -3.0 -0.042 0.007 652 700 7330 6295 -23.7240 -23.3150 12.01 
0.327 2 -3.00 -3.00 -3.0 -3.0 -0.042 0.004 644 703 7328 6293 -24.5867 -23.3150 12.01 
0.328 2 -3.00 -3.00 -3.0 -3.0 -0.040 0.004 649 703 7326 6292 -24.5867 -23.3150 12.01 
0.329 2 -3.00 -3.00 -3.0 -3.0 -0.040 0.007 650 705 7325 6290 -24.1477 -23.7240 12.01 
0.330 2 -3.00 -3.00 -3.0 -3.0 -0.036 0.007 651 704 7323 6288 -24.1477 -22.9198 12.01 
0.331 2 -3.00 -3.00 -3.0 -3.0 -0.036 0.007 649 707 7321 6287 -24.1477 -23.3150 12.02 
0.332 2 -3.00 -3.00 -3.0 -3.0 -0.040 0.002 643 702 7319 6285 -23.7240 -23.3150 12.02 
0.333 2 -3.00 -3.00 -3.0 -3.0 -0.038 0.007 640 698 7317 6283 -23.7240 -23.7240 12.02 
0.334 2 -3.00 -3.00 -3.0 -3.0 -0.045 0.007 646 701 7316 6281 -24.1477 -23.7240 12.02 
0.335 2 -3.00 -3.00 -3.0 -3.0 -0.045 0.004 652 701 7314 6280 -24.1477 -24.1477 12.02 
0.336 2 -3.00 -3.00 -3.0 -3.0 -0.042 0.004 650 705 7312 6278 -24.1477 -23.7240 12.01 
0.337 2 -3.00 -3.00 -3.0 -3.0 -0.042 0.004 649 705 7310 6276 -24.1477 -23.3150 12.01 
0.338 2 -3.00 -3.00 -3.0 -3.0 -0.040 0.004 649 704 7309 6274 -24.1477 -25.0420 12.01 
0.339 2 -3.00 -3.00 -3.0 -3.0 -0.045 0.007 646 697 7307 6273 -24.1477 -23.3150 12.01 
0.340 2 -3.00 -3.00 -3.0 -3.0 -0.033 0.007 651 698 7305 6271 -24.1477 -24.1477 12.01 
0.341 2 -3.00 -3.00 -3.0 -3.0 -0.042 0.002 646 703 7303 6269 -24.5867 -23.7240 12.02 
0.342 2 -3.00 -3.00 -3.0 -3.0 -0.049 0.007 644 705 7302 6267 -24.1477 -24.1477 12.02 
0.343 2 -3.00 -3.00 -3.0 -3.0 -0.042 0.002 645 705 7300 6266 -23.7240 -23.7240 12.02 
0.344 2 -3.00 -3.00 -3.0 -3.0 -0.042 0.009 646 702 7298 6264 -25.0420 -24.1477 12.02 
0.345 2 -3.00 -3.00 -3.0 -3.0 -0.042 0.007 642 700 7296 6262 -25.0420 -23.7240 12.02 
0.346 2 -3.00 -3.00 -3.0 -3.0 -0.045 0.004 642 695 7294 6260 -25.0420 -24.1477 11.96 
0.347 2 -3.00 -3.00 -3.0 -3.0 -0.045 0.002 649 701 7293 6259 -24.5867 -22.9198 11.96 
0.348 2 -3.00 -3.00 -3.0 -3.0 -0.042 0.007 652 702 7291 6257 -23.7240 -23.3150 11.96 
0.349 2 -3.00 -3.00 -3.0 -3.0 -0.040 0.007 652 704 7289 6255 -24.5867 -23.3150 11.96 
0.350 2 -3.00 -3.00 -3.0 -3.0 -0.045 0.002 642 706 7287 6253 -23.7240 -23.3150 11.96 
0.351 2 -3.00 -3.00 -3.0 -3.0 -0.045 0.004 641 708 7285 6252 -25.0420 -24.1477 12.01 
0.352 2 -3.00 -3.00 -3.0 -3.0 -0.042 0.002 645 701 7284 6250 -24.1477 -23.3150 12.01 
0.353 2 -3.00 -3.00 -3.0 -3.0 -0.042 0.004 647 699 7282 6248 -24.1477 -23.3150 12.01 
0.354 2 -3.00 -3.00 -3.0 -3.0 -0.042 0.004 648 701 7280 6247 -24.5867 -23.7240 12.01 
0.355 2 -3.00 -3.00 -3.0 -3.0 -0.042 0.004 645 705 7278 6245 -24.5867 -23.3150 12.01 
0.356 2 -3.00 -3.00 -3.0 -3.0 -0.042 0.004 652 701 7277 6243 -24.1477 -24.5867 12.02 
0.357 2 -3.00 -3.00 -3.0 -3.0 -0.042 0.004 652 704 7275 6241 -24.1477 -24.1477 12.02 
0.358 2 -3.00 -3.00 -3.0 -3.0 -0.040 0.009 652 701 7273 6240 -24.1477 -23.7240 12.02 
0.359 2 -3.00 -3.00 -3.0 -3.0 -0.045 0.007 642 699 7271 6238 -23.7240 -23.7240 12.02 
0.360 2 -3.00 -3.00 -3.0 -3.0 -0.045 0.007 641 696 7270 6236 -23.7240 -24.1477 12.02 
0.361 2 -3.00 -3.00 -3.0 -3.0 -0.038 0.004 645 700 7268 6234 -23.7240 -23.7240 11.99 
0.362 2 -3.00 -3.00 -3.0 -3.0 -0.042 0.004 649 701 7266 6233 -24.1477 -24.5867 11.99 
0.363 2 -3.00 -3.00 -3.0 -3.0 -0.045 0.004 650 705 7264 6231 -24.1477 -24.1477 11.99 
0.364 2 -3.00 -3.00 -3.0 -3.0 -0.042 0.002 651 710 7263 6229 -24.1477 -22.5378 11.99 
0.365 2 -3.00 -3.00 -3.0 -3.0 -0.045 0.007 650 700 7261 6227 -24.1477 -23.3150 11.99 
0.366 2 -3.00 -3.00 -3.0 -3.0 -0.042 0.004 652 697 7259 6226 -24.1477 -24.5867 12.01 
0.367 2 -3.00 -3.00 -3.0 -3.0 -0.042 0.009 650 697 7257 6224 -23.7240 -23.7240 12.01 
0.368 2 -3.00 -3.00 -3.0 -3.0 -0.040 0.009 645 701 7256 6222 -24.1477 -24.1477 12.01 
0.369 2 -3.00 -3.00 -3.0 -3.0 -0.047 0.004 644 705 7254 6220 -23.7240 -23.7240 12.01 
0.370 2 -3.00 -3.00 -3.0 -3.0 -0.036 0.002 647 708 7252 6219 -23.7240 -23.3150 12.01 
0.371 2 -3.00 -3.00 -3.0 -3.0 -0.040 0.004 644 705 7250 6217 -25.0420 -22.9198 11.96 
0.372 2 -3.00 -3.00 -3.0 -3.0 -0.036 0.007 643 702 7248 6215 -24.5867 -23.3150 11.96 
0.373 2 -3.00 -3.00 -3.0 -3.0 -0.045 0.004 641 700 7247 6214 -24.5867 -22.9198 11.96 
0.374 2 -3.00 -3.00 -3.0 -3.0 -0.042 0.004 647 698 7245 6212 -24.1477 -23.7240 11.96 
0.375 2 -3.00 -3.00 -3.0 -3.0 -0.042 0.004 651 703 7243 6210 -23.7240 -22.5378 11.96 
0.376 2 -3.00 -3.00 -3.0 -3.0 -0.040 0.009 649 702 7241 6208 -24.5867 -23.3150 12.02 
0.377 2 -3.00 -3.00 -3.0 -3.0 -0.042 0.007 646 702 7240 6207 -23.7240 -23.7240 12.02 
0.378 2 -3.00 -3.00 -3.0 -3.0 -0.045 0.002 644 706 7238 6205 -25.0420 -24.5867 12.02 
0.379 2 -3.00 -3.00 -3.0 -3.0 -0.042 0.004 642 707 7236 6203 -24.1477 -23.3150 12.02 
0.380 2 -3.00 -3.00 -3.0 -3.0 -0.036 0.002 645 701 7234 6202 -24.5867 -23.7240 12.02 
0.381 2 -3.00 -3.00 -3.0 -3.0 -0.042 0.004 643 695 7232 6200 -24.1477 -23.7240 12.01 
0.382 2 -3.00 -3.00 -3.0 -3.0 -0.040 0.004 647 699 7231 6198 -24.5867 -23.7240 12.01 
0.383 2 -3.00 -3.00 -3.0 -3.0 -0.042 0.004 650 704 7229 6196 -24.1477 -23.3150 12.01 
0.384 2 -3.00 -3.00 -3.0 -3.0 -0.040 0.007 655 703 7227 6194 -24.1477 -24.5867 12.01 
0.385 2 -3.00 -3.00 -3.0 -3.0 -0.040 0.007 655 705 7225 6193 -24.1477 -23.3150 12.01 
0.386 2 -3.00 -3.00 -3.0 -3.0 -0.045 0.007 651 702 7224 6191 -23.7240 -23.7240 11.99 
0.387 2 -3.00 -3.00 -3.0 -3.0 -0.045 0.007 645 699 7222 6189 -23.7240 -23.7240 11.99 
0.388 2 -3.00 -3.00 -3.0 -3.0 -0.042 0.007 647 701 7220 6188 -24.1477 -23.7240 11.99 
0.389 2 -3.00 -3.00 -3.0 -3.0 -0.040 0.002 652 702 7218 6186 -24.1477 -23.7240 11.99 
0.390 2 -3.00 -3.00 -3.0 -3.0 -0.042 0.007 651 703 7217 6184 -24.1477 -24.1477 11.99 
0.391 2 -3.00 -3.00 -3.0 -3.0 -0.042 0.004 644 705 7215 6182 -24.1477 -23.7240 12.01 
0.392 2 -3.00 -3.00 -3.0 -3.0 -0.040 0.002 644 710 7213 6181 -23.7240 -21.8108 12.01 
0.393 2 -3.00 -3.00 -3.0 -3.0 -0.038 0.004 644 704 7211 6179 -23.7240 -24.5867 12.01 
0.394 2 -3.00 -3.00 -3.0 -3.0 -0.040 0.004 646 701 7210 6177 -23.3150 -21.8108 12.01 
0.395 2 -3.00 -3.00 -3.0 -3.0 -0.045 0.004 648 698 7208 6175 -24.1477 -23.3150 12.01 
0.396 2 -3.00 -3.00 -3.0 -3.0 -0.049 0.004 644 703 7206 6174 -23.7240 -23.3150 12.01 
0.397 2 -3.00 -3.00 -3.0 -3.0 -0.036 0.004 647 703 7204 6172 -23.7240 -23.7240 12.01 
0.398 2 -3.00 -3.00 -3.0 -3.0 -0.042 0.002 652 706 7202 6170 -24.1477 -23.7240 12.01 
0.399 2 -3.00 -3.00 -3.0 -3.0 -0.045 0.007 646 706 7201 6169 -24.5867 -23.7240 12.01 
0.400 2 -3.00 -3.00 -3.0 -3.0 -0.042 0.007 639 702 7199 6167 -24.5867 -23.3150 12.01 
0.401 4 6.00 6.00 6.0 6.0 0.040 -0.004 641 699 7197 6165 -24.1477 -23.7240 12.01 
0.402 4 6.00 6.00 6.0 6.0 0.449 -0.272 785 584 7195 6163 -22.9198 -24.1477 12.01 
0.403 4 6.00 6.00 6.0 6.0 1.312 -0.701 931 444 7194 6162 -24.1477 -22.5378 12.01 
0.404 4 6.00 6.00 6.0 6.0 1.893 -0.949 1016 371 7192 6160 -20.1831 -21.8108 12.01 
0.405 4 6.00 6.00 6.0 6.0 1.902 -1.056 1005 346 7191 6159 -19.5981 -18.5242 12.01 
0.406 4 6.00 6.00 6.0 6.0 2.031 -1.089 1022 333 7190 6158 -19.0460 -16.4911 11.45 
0.407 4 6.00 6.00 6.0 6.0 2.152 -1.185 1023 319 7189 6157 -16.9034 -15.1940 11.45 
0.408 4 6.00 6.00 6.0 6.0 2.208 -1.281 1023 302 7188 6156 -12.8788 -11.1758 11.45 
0.409 4 6.00 6.00 6.0 6.0 2.219 -1.109 1023 359 7187 6156 -10.5646 -10.4021 11.45 
0.410 4 6.00 6.00 6.0 6.0 2.201 -1.083 1023 360 7187 6156 -10.5646 -7.1172 11.45 
0.411 4 6.00 6.00 6.0 6.0 2.138 -1.071 1023 352 7186 6155 -5.9051 -6.2031 11.47 
0.412 4 6.00 6.00 6.0 6.0 2.065 -1.058 1013 362 7186 6155 -5.2414 -6.2031 11.47 
0.413 4 6.00 6.00 6.0 6.0 2.009 -1.040 1005 372 7186 6155 -5.2414 -4.9534 11.47 
0.414 4 6.00 6.00 6.0 6.0 1.931 -1.011 995 383 7187 6155 5.6580 -3.6254 11.47 
0.415 4 6.00 6.00 6.0 6.0 1.864 -0.984 985 386 7187 6156 5.6580 3.2506 11.47 
0.416 4 6.00 6.00 6.0 6.0 1.804 -0.960 983 392 7188 6156 5.6580 3.2506 11.53 
0.417 4 6.00 6.00 6.0 6.0 1.748 -0.942 968 390 7188 6157 5.4091 5.9571 11.53 
0.418 4 6.00 6.00 6.0 6.0 1.676 -1.002 963 379 7189 6158 9.2621 5.9571 11.53 
0.419 4 6.00 6.00 6.0 6.0 1.627 -0.772 958 450 7190 6158 11.4599 9.0756 11.53 
0.420 4 6.00 6.00 6.0 6.0 1.598 -0.757 955 459 7191 6159 13.5227 11.8620 11.53 
0.421 4 6.00 6.00 6.0 6.0 1.616 -0.772 959 450 7192 6160 14.8601 12.4061 11.61 
0.422 4 6.00 6.00 6.0 6.0 1.714 -0.770 972 449 7193 6161 15.5433 13.1288 11.61 
0.423 4 6.00 6.00 6.0 6.0 1.194 -0.757 881 447 7195 6163 15.9091 14.2344 11.61 
0.424 4 6.00 6.00 6.0 6.0 1.199 -0.743 889 449 7196 6164 18.5242 16.4911 11.61 
0.425 4 6.00 6.00 6.0 6.0 1.234 -0.759 894 447 7198 6165 19.0460 17.1173 11.61 
0.426 4 6.00 6.00 6.0 6.0 1.237 -0.592 892 504 7199 6167 20.1831 19.5981 11.72 
0.427 4 6.00 6.00 6.0 6.0 1.254 -0.574 902 501 7201 6168 21.4646 20.4889 11.72 
0.428 4 6.00 6.00 6.0 6.0 1.036 -0.571 858 496 7203 6170 23.7240 21.8108 11.72 
0.429 4 6.00 6.00 6.0 6.0 0.931 -0.580 848 501 7205 6172 25.5145 23.3150 11.72 
0.430 4 6.00 6.00 6.0 6.0 0.971 -0.614 856 490 7206 6174 25.0420 23.7240 11.72 
0.431 4 6.00 6.00 6.0 6.0 1.033 -0.489 868 533 7208 6176 26.0052 24.5867 11.77 
0.432 4 6.00 6.00 6.0 6.0 0.888 -0.496 835 525 7210 6178 27.0454 26.0052 11.77 
0.433 4 6.00 6.00 6.0 6.0 0.763 -0.511 822 501 7213 6180 27.5973 25.5145 11.77 
0.434 4 6.00 6.00 6.0 6.0 0.788 -0.533 827 512 7215 6182 28.7717 27.5973 11.77 
0.435 4 6.00 6.00 6.0 6.0 0.842 -0.426 840 549 7217 6184 30.0504 27.0454 11.77 
0.436 4 6.00 6.00 6.0 6.0 0.683 -0.444 811 538 7219 6186 30.7334 28.7717 11.83 
0.437 4 6.00 6.00 6.0 6.0 0.690 -0.449 818 530 7222 6188 31.4481 30.7334 11.83 
0.438 4 6.00 6.00 6.0 6.0 0.741 -0.400 824 550 7224 6191 32.1969 32.1969 11.83 
0.439 4 6.00 6.00 6.0 6.0 0.714 -0.377 812 555 7226 6193 32.9822 32.9822 11.83 
0.440 4 6.00 6.00 6.0 6.0 0.609 -0.388 800 551 7229 6196 33.8067 32.9822 11.83 
0.441 4 6.00 6.00 6.0 6.0 0.625 -0.386 804 556 7231 6198 34.6736 33.8067 11.87 
0.442 4 6.00 6.00 6.0 6.0 0.710 -0.337 817 571 7234 6201 36.5478 33.8067 11.87 
0.443 4 6.00 6.00 6.0 6.0 0.520 -0.353 784 564 7237 6203 36.5478 34.6736 11.87 
0.444 4 6.00 6.00 6.0 6.0 0.551 -0.386 794 552 7240 6206 36.5478 34.6736 11.87 
0.445 4 6.00 6.00 6.0 6.0 0.571 -0.317 800 572 7242 6208 37.5630 36.5478 11.87 
0.446 4 6.00 6.00 6.0 6.0 0.482 -0.328 780 572 7245 6211 38.6363 37.5630 11.87 
0.447 4 6.00 6.00 6.0 6.0 0.504 -0.350 789 566 7248 6214 37.5630 37.5630 11.87 
0.448 4 6.00 6.00 6.0 6.0 0.509 -0.283 786 585 7251 6217 39.7726 38.6363 11.87 
0.449 4 6.00 6.00 6.0 6.0 0.429 -0.292 772 577 7254 6220 40.9779 38.6363 11.87 
0.450 4 6.00 6.00 6.0 6.0 0.491 -0.308 791 575 7257 6222 40.9779 38.6363 11.87 
0.451 4 6.00 6.00 6.0 6.0 0.404 -0.275 770 587 7260 6225 40.9779 39.7726 11.90 
0.452 4 6.00 6.00 6.0 6.0 0.395 -0.279 767 583 7262 6228 40.9779 39.7726 11.90 
0.453 4 6.00 6.00 6.0 6.0 0.442 -0.261 775 589 7265 6231 42.2584 36.5478 11.90 
0.454 4 6.00 6.00 6.0 6.0 0.339 -0.268 759 582 7268 6234 42.2584 39.7726 11.90 
0.455 4 6.00 6.00 6.0 6.0 0.364 -0.272 766 585 7271 6237 42.2584 39.7726 11.90 
0.456 4 6.00 6.00 6.0 6.0 0.373 -0.237 758 594 7275 6240 42.2584 42.2584 11.91 
0.457 4 6.00 6.00 6.0 6.0 0.330 -0.241 757 598 7278 6243 43.6216 42.2584 11.91 
0.458 4 6.00 6.00 6.0 6.0 0.373 -0.257 769 594 7281 6246 43.6216 43.6216 11.91 
0.459 4 6.00 6.00 6.0 6.0 0.297 -0.219 754 602 7284 6249 45.0756 43.6216 11.91 
0.460 4 6.00 6.00 6.0 6.0 0.301 -0.230 758 591 7287 6252 45.0756 43.6216 11.91 
0.461 4 6.00 6.00 6.0 6.0 0.308 -0.214 758 607 7291 6256 46.6300 45.0756 11.93 
0.462 4 6.00 6.00 6.0 6.0 0.275 -0.221 750 605 7294 6259 46.6300 45.0756 11.93 
0.463 4 6.00 6.00 6.0 6.0 0.310 -0.241 758 597 7297 6262 46.6300 43.6216 11.93 
0.464 4 6.00 6.00 6.0 6.0 0.241 -0.201 742 608 7301 6265 48.2953 45.0756 11.93 
0.465 4 6.00 6.00 6.0 6.0 0.263 -0.205 749 604 7304 6268 45.0756 45.0756 11.93 
0.466 4 6.00 6.00 6.0 6.0 0.237 -0.192 740 609 7308 6272 48.2953 45.0756 11.93 
0.467 4 6.00 6.00 6.0 6.0 0.217 -0.196 744 607 7311 6275 48.2953 45.0756 11.93 
0.468 4 6.00 6.00 6.0 6.0 0.232 -0.210 747 608 7314 6278 48.2953 46.6300 11.93 
0.469 4 6.00 6.00 6.0 6.0 0.208 -0.192 742 614 7318 6282 48.2953 45.0756 11.93 
0.470 4 6.00 6.00 6.0 6.0 0.270 -0.201 756 611 7321 6285 48.2953 46.6300 11.93 
0.471 4 6.00 6.00 6.0 6.0 0.228 -0.174 744 614 7325 6289 48.2953 46.6300 11.94 
0.472 4 6.00 6.00 6.0 6.0 0.230 -0.179 743 608 7328 6292 48.2953 46.6300 11.94 
0.473 4 6.00 6.00 6.0 6.0 0.203 -0.165 735 616 7331 6295 48.2953 48.2953 11.94 
0.474 4 6.00 6.00 6.0 6.0 0.185 -0.170 736 620 7335 6299 48.2953 48.2953 11.94 
0.475 4 6.00 6.00 6.0 6.0 0.219 -0.190 740 613 7338 6302 50.0841 48.2953 11.94 
0.476 4 6.00 6.00 6.0 6.0 0.179 -0.172 733 616 7342 6306 48.2953 50.0841 11.94 
0.477 4 6.00 6.00 6.0 6.0 0.217 -0.176 746 613 7346 6309 48.2953 50.0841 11.94 
0.478 4 6.00 6.00 6.0 6.0 0.154 -0.161 735 616 7349 6312 52.0104 50.0841 11.94 
0.479 4 6.00 6.00 6.0 6.0 0.194 -0.161 739 614 7353 6316 52.0104 48.2953 11.94 
0.480 4 6.00 6.00 6.0 6.0 0.150 -0.158 730 619 7356 6319 52.0104 48.2953 11.94 
0.481 4 6.00 6.00 6.0 6.0 0.141 -0.154 734 624 7360 6323 50.0841 48.2953 11.94 
0.482 4 6.00 6.00 6.0 6.0 0.121 -0.167 728 617 7364 6326 52.0104 50.0841 11.94 
0.483 4 6.00 6.00 6.0 6.0 0.129 -0.158 729 620 7367 6330 52.0104 48.2953 11.94 
0.484 4 6.00 6.00 6.0 6.0 0.152 -0.165 733 614 7371 6333 52.0104 52.0104 11.94 
0.485 4 6.00 6.00 6.0 6.0 0.127 -0.143 728 617 7375 6337 52.0104 52.0104 11.94 
0.486 4 6.00 6.00 6.0 6.0 0.154 -0.145 731 624 7379 6341 52.0104 50.0841 11.94 
0.487 4 6.00 6.00 6.0 6.0 0.107 -0.138 722 628 7382 6344 52.0104 52.0104 11.94 
0.488 4 6.00 6.00 6.0 6.0 0.167 -0.141 731 627 7386 6348 54.0908 52.0104 11.94 
0.489 4 6.00 6.00 6.0 6.0 0.112 -0.145 727 624 7390 6351 54.0908 54.0908 11.94 
0.490 4 6.00 6.00 6.0 6.0 0.141 -0.147 739 622 7394 6355 52.0104 52.0104 11.94 
0.491 4 6.00 6.00 6.0 6.0 0.109 -0.154 726 617 7397 6358 54.0908 50.0841 11.96 
0.492 4 6.00 6.00 6.0 6.0 0.147 -0.136 733 628 7401 6362 54.0908 50.0841 11.96 
0.493 4 6.00 6.00 6.0 6.0 0.112 -0.150 725 622 7405 6366 54.0908 50.0841 11.96 
0.494 4 6.00 6.00 6.0 6.0 0.103 -0.136 718 625 7408 6369 54.0908 50.0841 11.96 
0.495 4 6.00 6.00 6.0 6.0 0.085 -0.138 718 624 7412 6373 54.0908 50.0841 11.96 
0.496 4 6.00 6.00 6.0 6.0 0.096 -0.136 723 623 7416 6377 54.0908 50.0841 11.94 
0.497 4 6.00 6.00 6.0 6.0 0.116 -0.138 723 622 7420 6380 54.0908 52.0104 11.94 
0.498 4 6.00 6.00 6.0 6.0 0.096 -0.127 718 629 7424 6384 54.0908 52.0104 11.94 
0.499 4 6.00 6.00 6.0 6.0 0.094 -0.125 716 628 7427 6388 54.0908 52.0104 11.94 
0.500 4 6.00 6.00 6.0 6.0 0.078 -0.116 719 634 7431 6391 54.0908 54.0908 11.94 
0.501 4 6.00 6.00 6.0 6.0 0.098 -0.123 726 624 7435 6395 56.3446 54.0908 11.98 
0.502 4 6.00 6.00 6.0 6.0 0.078 -0.129 723 625 7439 6399 54.0908 52.0104 11.98 
0.503 4 6.00 6.00 6.0 6.0 0.085 -0.125 715 624 7443 6403 56.3446 54.0908 11.98 
0.504 4 6.00 6.00 6.0 6.0 0.074 -0.129 712 629 7447 6406 56.3446 52.0104 11.98 
0.505 4 6.00 6.00 6.0 6.0 0.094 -0.114 722 632 7451 6410 56.3446 52.0104 11.98 
0.506 4 6.00 6.00 6.0 6.0 0.056 -0.127 698 627 7455 6414 56.3446 52.0104 11.96 
0.507 4 6.00 6.00 6.0 6.0 0.062 -0.116 713 629 7459 6417 56.3446 52.0104 11.96 
0.508 4 6.00 6.00 6.0 6.0 0.045 -0.118 714 627 7463 6421 56.3446 54.0908 11.96 
0.509 4 6.00 6.00 6.0 6.0 0.096 -0.116 726 629 7466 6425 56.3446 52.0104 11.96 
0.510 4 6.00 6.00 6.0 6.0 0.065 -0.118 713 631 7470 6429 56.3446 54.0908 11.96 
0.511 4 6.00 6.00 6.0 6.0 0.094 -0.114 726 635 7474 6433 56.3446 54.0908 11.98 
0.512 4 6.00 6.00 6.0 6.0 0.045 -0.112 714 632 7478 6436 56.3446 52.0104 11.98 
0.513 4 6.00 6.00 6.0 6.0 0.089 -0.105 727 632 7482 6440 56.3446 52.0104 11.98 
0.514 4 6.00 6.00 6.0 6.0 0.054 -0.109 714 628 7486 6444 50.0841 54.0908 11.98 
0.515 4 6.00 6.00 6.0 6.0 0.083 -0.114 714 629 7490 6448 56.3446 56.3446 11.98 
0.516 4 6.00 6.00 6.0 6.0 0.045 -0.116 714 634 7494 6452 56.3446 54.0908 11.96 
0.517 4 6.00 6.00 6.0 6.0 0.112 -0.112 733 638 7498 6455 56.3446 54.0908 11.96 
0.518 4 6.00 6.00 6.0 6.0 0.049 -0.107 712 633 7502 6459 56.3446 54.0908 11.96 
0.519 4 6.00 6.00 6.0 6.0 0.071 -0.114 718 630 7506 6463 56.3446 54.0908 11.96 
0.520 4 6.00 6.00 6.0 6.0 0.036 -0.109 711 626 7510 6466 56.3446 54.0908 11.96 
0.521 4 6.00 6.00 6.0 6.0 0.089 -0.116 722 632 7514 6470 56.3446 54.0908 11.94 
0.522 4 6.00 6.00 6.0 6.0 0.058 -0.114 712 631 7518 6474 56.3446 52.0104 11.94 
0.523 4 6.00 6.00 6.0 6.0 0.083 -0.123 717 629 7522 6478 56.3446 54.0908 11.94 
0.524 4 6.00 6.00 6.0 6.0 0.033 -0.105 707 634 7526 6482 56.3446 54.0908 11.94 
0.525 4 6.00 6.00 6.0 6.0 0.080 -0.109 722 632 7530 6486 56.3446 54.0908 11.94 
0.526 4 6.00 6.00 6.0 6.0 0.045 -0.103 715 631 7534 6490 56.3446 54.0908 11.98 
0.527 4 6.00 6.00 6.0 6.0 0.065 -0.105 720 622 7538 6493 56.3446 54.0908 11.98 
0.528 4 6.00 6.00 6.0 6.0 0.027 -0.109 709 637 7542 6497 58.7943 56.3446 11.98 
0.529 4 6.00 6.00 6.0 6.0 0.080 -0.105 718 637 7546 6501 58.7943 56.3446 11.98 
0.530 4 6.00 6.00 6.0 6.0 0.025 -0.096 707 637 7550 6505 56.3446 54.0908 11.98 
0.531 4 6.00 6.00 6.0 6.0 0.036 -0.100 708 634 7554 6509 56.3446 54.0908 11.98 
0.532 4 6.00 6.00 6.0 6.0 0.013 -0.100 705 631 7558 6513 56.3446 54.0908 11.98 
0.533 4 6.00 6.00 6.0 6.0 0.062 -0.100 717 636 7562 6516 56.3446 54.0908 11.98 
0.534 4 6.00 6.00 6.0 6.0 0.029 -0.103 711 638 7566 6520 54.0908 54.0908 11.98 
0.535 4 6.00 6.00 6.0 6.0 0.056 -0.105 713 636 7570 6524 56.3446 56.3446 11.98 
0.536 4 6.00 6.00 6.0 6.0 0.025 -0.096 705 633 7574 6528 56.3446 56.3446 11.99 
0.537 4 6.00 6.00 6.0 6.0 0.051 -0.092 711 640 7578 6532 58.7943 56.3446 11.99 
0.538 4 6.00 6.00 6.0 6.0 0.027 -0.085 709 623 7582 6536 56.3446 56.3446 11.99 
0.539 4 6.00 6.00 6.0 6.0 0.045 -0.092 710 642 7587 6540 58.7943 56.3446 11.99 
0.540 4 6.00 6.00 6.0 6.0 0.013 -0.096 706 641 7591 6544 58.7943 56.3446 11.99 
0.541 4 6.00 6.00 6.0 6.0 0.054 -0.096 713 622 7595 6548 58.7943 56.3446 11.98 
0.542 4 6.00 6.00 6.0 6.0 0.016 -0.087 702 640 7599 6552 58.7943 54.0908 11.98 
0.543 4 6.00 6.00 6.0 6.0 0.027 -0.089 706 639 7603 6555 58.7943 54.0908 11.98 
0.544 4 6.00 6.00 6.0 6.0 0.009 -0.096 705 635 7607 6559 58.7943 54.0908 11.98 
0.545 4 6.00 6.00 6.0 6.0 0.045 -0.094 714 638 7611 6563 58.7943 50.0841 11.98 
0.546 4 6.00 6.00 6.0 6.0 0.027 -0.098 712 636 7615 6567 58.7943 52.0104 11.98 
0.547 4 6.00 6.00 6.0 6.0 0.040 -0.105 711 633 7619 6571 58.7943 54.0908 11.98 
0.550 4 6.00 6.00 6.0 6.0 0.016 -0.105 702 632 7631 6583 56.3446 56.3446 11.98 
0.551 4 6.00 6.00 6.0 6.0 0.038 -0.089 711 639 7635 6586 58.7943 56.3446 11.98 
0.552 4 6.00 6.00 6.0 6.0 0.013 -0.094 706 632 7638 6589 58.7943 56.3446 11.98 
0.553 4 6.00 6.00 6.0 6.0 0.033 -0.100 712 635 7641 6592 58.7943 58.7943 11.96 
0.553 4 6.00 6.00 6.0 6.0 0.025 -0.096 712 637 7644 6595 58.7943 58.7943 11.96 
0.554 4 6.00 6.00 6.0 6.0 0.009 -0.098 707 628 7648 6598 58.7943 56.3446 11.96 
0.555 4 6.00 6.00 6.0 6.0 0.011 -0.089 708 639 7652 6602 58.7943 56.3446 11.96 
0.556 4 6.00 6.00 6.0 6.0 0.011 -0.100 705 636 7656 6606 58.7943 56.3446 11.96 
0.557 4 6.00 6.00 6.0 6.0 0.029 -0.092 710 636 7660 6610 58.7943 56.3446 11.98 
0.558 4 6.00 6.00 6.0 6.0 0.013 -0.094 707 635 7664 6614 58.7943 58.7943 11.98 
0.559 4 6.00 6.00 6.0 6.0 0.018 -0.096 706 633 7668 6618 58.7943 56.3446 11.98 
0.560 4 6.00 6.00 6.0 6.0 0.011 -0.100 707 630 7673 6622 58.7943 58.7943 11.98 
0.561 4 6.00 6.00 6.0 6.0 0.018 -0.094 707 639 7677 6626 58.7943 58.7943 11.98 
0.562 4 6.00 6.00 6.0 6.0 0.013 -0.094 705 639 7681 6630 58.7943 56.3446 11.98 
0.563 4 6.00 6.00 6.0 6.0 0.016 -0.089 703 635 7685 6633 58.7943 56.3446 11.98 
0.564 4 6.00 6.00 6.0 6.0 0.025 -0.096 707 634 7689 6637 56.3446 56.3446 11.98 
0.565 4 6.00 6.00 6.0 6.0 0.013 -0.100 706 631 7693 6641 58.7943 56.3446 11.98 
0.566 4 6.00 6.00 6.0 6.0 0.011 -0.098 708 633 7698 6645 58.7943 50.0841 11.98 
0.567 4 6.00 6.00 6.0 6.0 0.007 -0.087 702 641 7702 6649 58.7943 52.0104 11.99 
0.568 4 6.00 6.00 6.0 6.0 0.033 -0.092 708 643 7706 6653 58.7943 56.3446 11.99 
0.569 4 6.00 6.00 6.0 6.0 0.013 -0.096 705 639 7710 6657 58.7943 56.3446 11.99 
0.570 4 6.00 6.00 6.0 6.0 0.036 -0.089 709 632 7714 6661 58.7943 56.3446 11.99 
0.571 4 6.00 6.00 6.0 6.0 0.009 -0.094 699 632 7718 6665 61.4668 56.3446 11.99 
0.572 4 6.00 6.00 6.0 6.0 0.031 -0.094 708 636 7723 6669 61.4668 58.7943 11.98 
0.573 4 6.00 6.00 6.0 6.0 0.009 -0.089 704 643 7727 6673 58.7943 58.7943 11.98 
0.574 4 6.00 6.00 6.0 6.0 0.022 -0.085 710 636 7731 6677 61.4668 56.3446 11.98 
0.575 4 6.00 6.00 6.0 6.0 0.007 -0.085 703 641 7735 6681 61.4668 58.7943 11.98 
0.576 4 6.00 6.00 6.0 6.0 0.029 -0.087 707 639 7739 6684 61.4668 58.7943 11.98 
0.577 4 6.00 6.00 6.0 6.0 0.007 -0.094 705 634 7743 6689 61.4668 58.7943 11.99 
0.578 4 6.00 6.00 6.0 6.0 0.011 -0.089 700 642 7747 6692 61.4668 58.7943 11.99 
0.579 4 6.00 6.00 6.0 6.0 0.004 -0.083 700 643 7752 6696 61.4668 56.3446 11.99 
0.580 4 6.00 6.00 6.0 6.0 0.025 -0.083 709 641 7756 6700 61.4668 56.3446 11.99 
0.581 4 6.00 6.00 6.0 6.0 0.009 -0.089 707 637 7760 6704 61.4668 56.3446 11.99 
0.582 4 6.00 6.00 6.0 6.0 0.013 -0.085 702 634 7764 6708 61.4668 56.3446 11.98 
0.583 4 6.00 6.00 6.0 6.0 0.007 -0.085 702 642 7768 6712 61.4668 56.3446 11.98 
0.584 4 6.00 6.00 6.0 6.0 0.016 -0.089 707 639 7773 6716 61.4668 58.7943 11.98 
0.585 4 6.00 6.00 6.0 6.0 0.004 -0.085 706 641 7777 6720 58.7943 58.7943 11.98 
0.586 4 6.00 6.00 6.0 6.0 0.009 -0.083 702 637 7781 6724 61.4668 56.3446 11.98 
0.587 4 6.00 6.00 6.0 6.0 0.013 -0.078 707 642 7785 6728 61.4668 58.7943 11.98 
0.588 4 6.00 6.00 6.0 6.0 0.009 -0.087 703 642 7789 6732 58.7943 58.7943 11.98 
0.589 4 6.00 6.00 6.0 6.0 0.009 -0.094 704 639 7793 6736 61.4668 58.7943 11.98 
0.590 4 6.00 6.00 6.0 6.0 0.004 -0.094 699 624 7798 6740 61.4668 58.7943 11.98 
0.591 4 6.00 6.00 6.0 6.0 0.027 -0.087 712 624 7802 6744 61.4668 56.3446 11.98 
0.592 4 6.00 6.00 6.0 6.0 0.011 -0.085 705 632 7806 6748 61.4668 56.3446 11.98 
0.593 4 6.00 6.00 6.0 6.0 0.033 -0.094 712 633 7810 6752 61.4668 56.3446 11.98 
0.594 4 6.00 6.00 6.0 6.0 0.009 -0.087 703 641 7814 6756 61.4668 56.3446 11.98 
0.595 4 6.00 6.00 6.0 6.0 0.022 -0.089 706 637 7819 6760 61.4668 56.3446 11.98 
0.596 4 6.00 6.00 6.0 6.0 0.007 -0.092 701 634 7823 6764 58.7943 58.7943 11.98 
0.597 4 6.00 6.00 6.0 6.0 0.013 -0.089 704 635 7827 6768 61.4668 58.7943 11.99 
0.598 4 6.00 6.00 6.0 6.0 0.004 -0.085 702 638 7831 6772 61.4668 58.7943 11.99 
0.599 4 6.00 6.00 6.0 6.0 0.022 -0.080 706 645 7835 6775 61.4668 58.7943 11.99 
0.600 4 6.00 6.00 6.0 6.0 0.004 -0.085 698 640 7840 6779 61.4668 58.7943 11.99 
0.601 4 6.00 6.00 6.0 6.0 0.007 -0.089 697 638 7844 6783 61.4668 58.7943 11.99 
0.602 4 6.00 6.00 6.0 6.0 0.007 -0.089 703 638 7848 6788 61.4668 58.7943 11.98 
0.603 4 6.00 6.00 6.0 6.0 0.018 -0.083 708 635 7852 6791 61.4668 56.3446 11.98 
0.604 4 6.00 6.00 6.0 6.0 0.009 -0.085 704 641 7856 6795 61.4668 56.3446 11.98 
0.605 4 6.00 6.00 6.0 6.0 0.011 -0.089 704 640 7861 6799 61.4668 56.3446 11.98 
0.606 4 6.00 6.00 6.0 6.0 0.007 -0.085 703 640 7865 6803 61.4668 56.3446 11.98 
0.607 4 6.00 6.00 6.0 6.0 0.009 -0.087 705 635 7869 6807 61.4668 56.3446 11.98 
0.608 4 6.00 6.00 6.0 6.0 0.007 -0.092 704 634 7873 6811 58.7943 58.7943 11.98 
0.609 4 6.00 6.00 6.0 6.0 0.004 -0.087 704 636 7878 6815 61.4668 58.7943 11.98 
0.610 4 6.00 6.00 6.0 6.0 0.029 -0.085 708 642 7882 6819 61.4668 54.0908 11.98 
0.611 4 6.00 6.00 6.0 6.0 0.004 -0.076 700 640 7886 6823 61.4668 54.0908 11.98 
0.612 4 6.00 6.00 6.0 6.0 0.011 -0.083 702 643 7890 6827 61.4668 56.3446 11.98 
0.613 4 6.00 6.00 6.0 6.0 0.004 -0.089 700 634 7894 6831 61.4668 56.3446 11.98 
0.614 4 6.00 6.00 6.0 6.0 0.025 -0.092 711 637 7899 6835 61.4668 58.7943 11.98 
0.615 4 6.00 6.00 6.0 6.0 0.007 -0.085 702 641 7903 6839 61.4668 56.3446 11.98 
0.616 4 6.00 6.00 6.0 6.0 0.018 -0.083 708 640 7907 6843 61.4668 56.3446 11.98 
0.617 4 6.00 6.00 6.0 6.0 0.004 -0.092 702 636 7911 6847 58.7943 56.3446 11.99 
0.618 4 6.00 6.00 6.0 6.0 0.016 -0.085 706 637 7916 6851 61.4668 56.3446 11.99 
0.619 4 6.00 6.00 6.0 6.0 0.004 -0.089 702 636 7920 6855 58.7943 58.7943 11.99 
0.620 4 6.00 6.00 6.0 6.0 0.009 -0.087 699 631 7924 6859 61.4668 56.3446 11.99 
0.621 4 6.00 6.00 6.0 6.0 0.007 -0.092 702 635 7928 6863 61.4668 58.7943 11.99 
0.622 4 6.00 6.00 6.0 6.0 0.011 -0.085 707 642 7932 6867 61.4668 58.7943 11.98 
0.623 4 6.00 6.00 6.0 6.0 0.009 -0.076 702 640 7937 6871 61.4668 56.3446 11.98 
0.624 4 6.00 6.00 6.0 6.0 0.013 -0.083 700 637 7941 6875 61.4668 56.3446 11.98 
0.625 4 6.00 6.00 6.0 6.0 0.016 -0.092 705 636 7945 6879 61.4668 56.3446 11.98 
0.626 4 6.00 6.00 6.0 6.0 0.011 -0.092 702 640 7949 6883 61.4668 58.7943 11.98 
0.627 4 6.00 6.00 6.0 6.0 0.011 -0.083 704 636 7954 6887 61.4668 56.3446 11.98 
0.628 4 6.00 6.00 6.0 6.0 0.009 -0.080 698 639 7958 6891 61.4668 56.3446 11.98 
0.629 4 6.00 6.00 6.0 6.0 0.022 -0.092 705 636 7962 6895 61.4668 56.3446 11.98 
0.630 4 6.00 6.00 6.0 6.0 0.009 -0.085 704 639 7966 6899 61.4668 56.3446 11.98 
0.631 4 6.00 6.00 6.0 6.0 0.022 -0.089 708 639 7970 6903 61.4668 58.7943 11.98 
0.632 4 6.00 6.00 6.0 6.0 0.007 -0.089 705 635 7975 6907 61.4668 56.3446 11.99 
0.633 4 6.00 6.00 6.0 6.0 0.029 -0.094 707 639 7979 6911 61.4668 58.7943 11.99 
0.634 4 6.00 6.00 6.0 6.0 0.007 -0.080 699 637 7983 6915 61.4668 58.7943 11.99 
0.635 4 6.00 6.00 6.0 6.0 0.009 -0.076 701 644 7987 6919 58.7943 56.3446 11.99 
0.636 4 6.00 6.00 6.0 6.0 0.004 -0.080 700 642 7991 6923 61.4668 56.3446 11.99 
0.637 4 6.00 6.00 6.0 6.0 0.016 -0.092 706 641 7996 6927 61.4668 56.3446 11.99 
0.638 4 6.00 6.00 6.0 6.0 0.004 -0.087 704 638 8000 6931 61.4668 58.7943 11.99 
0.639 4 6.00 6.00 6.0 6.0 0.009 -0.083 702 640 8004 6935 61.4668 56.3446 11.99 
0.640 4 6.00 6.00 6.0 6.0 0.011 -0.078 700 640 8008 6939 61.4668 56.3446 11.99 
0.641 4 6.00 6.00 6.0 6.0 0.009 -0.089 701 636 8013 6943 61.4668 56.3446 11.99 
0.642 4 6.00 6.00 6.0 6.0 0.009 -0.083 702 627 8017 6947 58.7943 56.3446 11.99 
0.643 4 6.00 6.00 6.0 6.0 0.009 -0.087 704 639 8021 6951 61.4668 58.7943 11.99 
0.644 4 6.00 6.00 6.0 6.0 0.011 -0.089 709 638 8025 6955 61.4668 56.3446 11.99 
0.645 4 6.00 6.00 6.0 6.0 0.009 -0.096 702 636 8030 6959 61.4668 58.7943 11.99 
0.646 4 6.00 6.00 6.0 6.0 0.009 -0.083 705 636 8034 6963 61.4668 58.7943 11.99 
0.647 4 6.00 6.00 6.0 6.0 0.004 -0.080 702 639 8038 6967 61.4668 56.3446 12.01 
0.648 4 6.00 6.00 6.0 6.0 0.025 -0.083 708 642 8042 6970 61.4668 56.3446 12.01 
0.649 4 6.00 6.00 6.0 6.0 0.009 -0.092 705 642 8047 6975 61.4668 56.3446 12.01 
0.650 4 6.00 6.00 6.0 6.0 0.016 -0.085 703 641 8051 6979 61.4668 58.7943 12.01 
0.651 4 6.00 6.00 6.0 6.0 0.007 -0.085 696 642 8055 6982 61.4668 56.3446 12.01 
0.652 4 6.00 6.00 6.0 6.0 0.013 -0.078 704 639 8059 6987 61.4668 56.3446 11.99 
0.653 4 6.00 6.00 6.0 6.0 0.004 -0.092 702 634 8063 6990 61.4668 56.3446 11.99 
0.654 4 6.00 6.00 6.0 6.0 0.009 -0.085 706 638 8068 6994 61.4668 56.3446 11.99 
0.655 4 6.00 6.00 6.0 6.0 0.007 -0.089 702 642 8072 6998 61.4668 58.7943 11.99 
0.656 4 6.00 6.00 6.0 6.0 0.013 -0.085 705 639 8076 7003 56.3446 56.3446 11.99 
0.657 4 6.00 6.00 6.0 6.0 0.004 -0.089 700 636 8081 7007 61.4668 58.7943 11.99 
0.658 4 6.00 6.00 6.0 6.0 0.007 -0.078 698 641 8085 7010 61.4668 58.7943 11.99 
0.659 4 6.00 6.00 6.0 6.0 0.004 -0.074 700 641 8089 7015 61.4668 58.7943 11.99 
0.660 4 6.00 6.00 6.0 6.0 0.011 -0.078 707 638 8093 7019 61.4668 58.7943 11.99 
0.661 4 6.00 6.00 6.0 6.0 0.007 -0.087 707 639 8097 7023 61.4668 58.7943 11.99 
0.662 4 6.00 6.00 6.0 6.0 0.007 -0.085 702 643 8102 7027 61.4668 58.7943 11.99 
0.663 4 6.00 6.00 6.0 6.0 0.016 -0.078 706 642 8106 7031 61.4668 56.3446 11.99 
0.664 4 6.00 6.00 6.0 6.0 0.009 -0.078 697 644 8110 7035 61.4668 56.3446 11.99 
0.665 4 6.00 6.00 6.0 6.0 0.013 -0.087 701 640 8114 7039 61.4668 56.3446 11.99 
0.666 4 6.00 6.00 6.0 6.0 0.004 -0.083 700 637 8119 7043 61.4668 56.3446 11.99 
0.667 4 6.00 6.00 6.0 6.0 0.020 -0.085 706 637 8123 7047 61.4668 58.7943 11.98 
0.668 4 6.00 6.00 6.0 6.0 0.011 -0.087 698 635 8127 7051 61.4668 56.3446 11.98 
0.669 4 6.00 6.00 6.0 6.0 0.007 -0.094 699 639 8131 7055 61.4668 58.7943 11.98 
0.670 4 6.00 6.00 6.0 6.0 0.004 -0.083 700 642 8136 7059 61.4668 58.7943 11.98 
0.671 4 6.00 6.00 6.0 6.0 0.016 -0.078 706 641 8140 7063 61.4668 56.3446 11.98 
0.672 4 6.00 6.00 6.0 6.0 0.004 -0.080 703 639 8144 7067 61.4668 56.3446 11.98 
0.673 4 6.00 6.00 6.0 6.0 0.009 -0.092 697 633 8148 7071 58.7943 56.3446 11.98 
0.674 4 6.00 6.00 6.0 6.0 0.004 -0.087 702 639 8153 7075 61.4668 58.7943 11.98 
0.675 4 6.00 6.00 6.0 6.0 0.009 -0.080 706 641 8157 7079 61.4668 56.3446 11.98 
0.676 4 6.00 6.00 6.0 6.0 0.011 -0.080 701 641 8161 7083 58.7943 56.3446 11.98 
0.677 4 6.00 6.00 6.0 6.0 0.007 -0.087 698 639 8166 7087 61.4668 56.3446 11.99 
0.678 4 6.00 6.00 6.0 6.0 0.016 -0.083 707 638 8170 7091 61.4668 56.3446 11.99 
0.679 4 6.00 6.00 6.0 6.0 0.009 -0.080 698 637 8174 7095 61.4668 58.7943 11.99 
0.680 4 6.00 6.00 6.0 6.0 0.007 -0.085 701 635 8178 7099 61.4668 56.3446 11.99 
0.681 4 6.00 6.00 6.0 6.0 0.004 -0.089 700 640 8182 7103 58.7943 58.7943 11.99 
0.682 4 6.00 6.00 6.0 6.0 0.025 -0.078 707 646 8187 7107 61.4668 58.7943 11.99 
0.683 4 6.00 6.00 6.0 6.0 0.004 -0.074 700 645 8191 7111 61.4668 58.7943 11.99 
0.684 4 6.00 6.00 6.0 6.0 0.016 -0.078 701 641 8195 7115 61.4668 58.7943 11.99 
0.685 4 6.00 6.00 6.0 6.0 0.004 -0.087 699 636 8199 7119 58.7943 58.7943 11.99 
0.686 4 6.00 6.00 6.0 6.0 0.011 -0.083 703 638 8204 7123 61.4668 58.7943 11.99 
0.687 4 6.00 6.00 6.0 6.0 0.004 -0.076 703 638 8208 7127 58.7943 56.3446 11.99 
0.688 4 6.00 6.00 6.0 6.0 0.007 -0.076 703 642 8212 7131 58.7943 56.3446 11.99 
0.689 4 6.00 6.00 6.0 6.0 0.004 -0.083 701 638 8216 7135 56.3446 56.3446 11.99 
0.690 4 6.00 6.00 6.0 6.0 0.009 -0.080 703 642 8221 7139 61.4668 56.3446 11.99 
0.691 4 6.00 6.00 6.0 6.0 0.004 -0.074 699 643 8225 7143 61.4668 58.7943 11.99 
0.692 4 6.00 6.00 6.0 6.0 0.004 -0.078 696 640 8229 7147 61.4668 56.3446 11.99 
0.693 4 6.00 6.00 6.0 6.0 0.009 -0.085 705 636 8233 7151 61.4668 58.7943 11.99 
0.694 4 6.00 6.00 6.0 6.0 0.009 -0.076 705 641 8237 7155 61.4668 58.7943 11.99 
0.695 4 6.00 6.00 6.0 6.0 0.011 -0.074 704 643 8242 7159 61.4668 58.7943 11.99 
0.696 4 6.00 6.00 6.0 6.0 0.004 -0.080 697 642 8246 7163 61.4668 58.7943 11.99 
0.697 4 6.00 6.00 6.0 6.0 0.020 -0.089 706 639 8250 7167 56.3446 58.7943 11.99 
0.698 4 6.00 6.00 6.0 6.0 0.007 -0.087 700 638 8254 7171 58.7943 58.7943 11.99 
0.699 4 6.00 6.00 6.0 6.0 0.009 -0.080 704 639 8259 7175 58.7943 56.3446 11.99 
0.700 4 6.00 6.00 6.0 6.0 0.004 -0.080 702 642 8263 7179 61.4668 58.7943 11.99 
0.701 4 6.00 6.00 6.0 6.0 0.020 -0.087 705 629 8267 7183 61.4668 58.7943 11.99 
0.702 4 6.00 6.00 6.0 6.0 0.004 -0.083 699 639 8272 7187 61.4668 58.7943 11.98 
0.703 4 6.00 6.00 6.0 6.0 0.009 -0.085 698 641 8276 7191 61.4668 58.7943 11.98 
0.704 4 6.00 6.00 6.0 6.0 0.011 -0.087 695 637 8280 7195 61.4668 56.3446 11.98 
0.705 4 6.00 6.00 6.0 6.0 0.016 -0.089 701 636 8284 7199 61.4668 58.7943 11.98 
0.706 4 6.00 6.00 6.0 6.0 0.007 -0.080 702 641 8288 7203 61.4668 58.7943 11.98 
0.707 4 6.00 6.00 6.0 6.0 0.009 -0.078 702 643 8293 7207 61.4668 58.7943 12.01 
0.708 4 6.00 6.00 6.0 6.0 0.004 -0.078 703 643 8297 7211 61.4668 58.7943 12.01 
0.709 4 6.00 6.00 6.0 6.0 0.007 -0.085 703 639 8301 7215 61.4668 56.3446 12.01 
0.710 4 6.00 6.00 6.0 6.0 0.004 -0.083 703 636 8305 7219 61.4668 58.7943 12.01 
0.711 4 6.00 6.00 6.0 6.0 0.004 -0.076 697 641 8310 7223 61.4668 56.3446 12.01 
0.712 4 6.00 6.00 6.0 6.0 0.020 -0.076 705 645 8314 7227 61.4668 56.3446 11.96 
0.713 4 6.00 6.00 6.0 6.0 0.002 -0.080 699 639 8318 7231 61.4668 56.3446 11.96 
0.714 4 6.00 6.00 6.0 6.0 0.007 -0.080 704 642 8323 7235 61.4668 56.3446 11.96 
0.715 4 6.00 6.00 6.0 6.0 0.002 -0.074 696 639 8327 7239 61.4668 58.7943 11.96 
0.716 4 6.00 6.00 6.0 6.0 0.016 -0.080 704 640 8331 7243 61.4668 56.3446 11.96 
0.717 4 6.00 6.00 6.0 6.0 0.007 -0.085 700 636 8335 7247 61.4668 54.0908 11.99 
0.718 4 6.00 6.00 6.0 6.0 0.016 -0.076 701 645 8339 7251 61.4668 58.7943 11.99 
0.719 4 6.00 6.00 6.0 6.0 0.009 -0.071 698 644 8344 7255 61.4668 56.3446 11.99 
0.720 4 6.00 6.00 6.0 6.0 0.013 -0.074 698 626 8348 7259 61.4668 56.3446 11.99 
0.721 4 6.00 6.00 6.0 6.0 0.002 -0.083 697 639 8352 7263 58.7943 58.7943 11.99 
0.722 4 6.00 6.00 6.0 6.0 0.009 -0.080 700 640 8357 7267 61.4668 58.7943 11.99 
0.723 4 6.00 6.00 6.0 6.0 0.004 -0.071 703 644 8361 7271 61.4668 58.7943 11.99 
0.724 4 6.00 6.00 6.0 6.0 0.013 -0.074 702 632 8365 7275 61.4668 58.7943 11.99 
0.725 4 6.00 6.00 6.0 6.0 0.004 -0.080 699 642 8369 7279 61.4668 58.7943 11.99 
0.726 4 6.00 6.00 6.0 6.0 0.004 -0.078 703 640 8374 7283 61.4668 58.7943 11.99 
0.727 4 6.00 6.00 6.0 6.0 0.018 -0.076 707 640 8378 7287 61.4668 56.3446 11.98 
0.728 4 6.00 6.00 6.0 6.0 0.009 -0.083 702 637 8382 7291 61.4668 58.7943 11.98 
0.729 4 6.00 6.00 6.0 6.0 0.025 -0.085 707 640 8386 7295 61.4668 58.7943 11.98 
0.730 4 6.00 6.00 6.0 6.0 0.007 -0.080 698 643 8390 7299 61.4668 58.7943 11.98 
0.731 4 6.00 6.00 6.0 6.0 0.016 -0.074 704 644 8395 7303 61.4668 58.7943 11.98 
0.732 4 6.00 6.00 6.0 6.0 0.007 -0.080 699 640 8399 7307 58.7943 58.7943 11.99 
0.733 4 6.00 6.00 6.0 6.0 0.009 -0.089 699 635 8403 7311 58.7943 58.7943 11.99 
0.734 4 6.00 6.00 6.0 6.0 0.004 -0.089 698 637 8407 7315 61.4668 58.7943 11.99 
0.735 4 6.00 6.00 6.0 6.0 0.013 -0.078 703 642 8412 7319 61.4668 56.3446 11.99 
0.736 4 6.00 6.00 6.0 6.0 0.004 -0.078 701 645 8416 7323 61.4668 56.3446 11.99 
0.737 4 6.00 6.00 6.0 6.0 0.007 -0.085 699 641 8420 7327 61.4668 56.3446 11.99 
0.738 4 6.00 6.00 6.0 6.0 0.004 -0.080 697 639 8424 7331 61.4668 56.3446 11.99 
0.739 4 6.00 6.00 6.0 6.0 0.007 -0.078 690 637 8429 7335 61.4668 56.3446 11.99 
0.740 4 6.00 6.00 6.0 6.0 0.007 -0.085 701 636 8433 7339 61.4668 58.7943 11.99 
0.741 4 6.00 6.00 6.0 6.0 0.007 -0.085 699 637 8437 7343 61.4668 58.7943 11.99 
0.742 4 6.00 6.00 6.0 6.0 0.011 -0.078 702 644 8442 7348 61.4668 58.7943 11.98 
0.743 4 6.00 6.00 6.0 6.0 0.007 -0.074 699 642 8446 7351 61.4668 58.7943 11.98 
0.744 4 6.00 6.00 6.0 6.0 0.016 -0.076 705 643 8450 7355 61.4668 58.7943 11.98 
0.745 4 6.00 6.00 6.0 6.0 0.004 -0.085 701 640 8454 7360 61.4668 61.4668 11.98 
0.746 4 6.00 6.00 6.0 6.0 0.022 -0.083 710 638 8459 7364 61.4668 58.7943 11.98 
0.747 4 6.00 6.00 6.0 6.0 0.004 -0.076 705 638 8463 7368 61.4668 56.3446 11.99 
0.750 4 6.00 6.00 6.0 6.0 0.007 -0.078 703 636 8474 7378 61.4668 56.3446 11.99 
0.751 4 6.00 6.00 6.0 6.0 0.009 -0.076 704 644 8477 7381 61.4668 56.3446 11.99 
0.751 4 6.00 6.00 6.0 6.0 0.004 -0.071 704 640 8480 7384 61.4668 56.3446 11.99 
0.752 4 6.00 6.00 6.0 6.0 0.009 -0.083 703 641 8484 7388 61.4668 58.7943 11.99 
0.753 4 6.00 6.00 6.0 6.0 0.007 -0.080 700 640 8489 7392 61.4668 58.7943 11.98 
0.754 4 6.00 6.00 6.0 6.0 0.004 -0.076 697 637 8493 7396 61.4668 58.7943 11.98 
0.755 4 6.00 6.00 6.0 6.0 0.004 -0.074 700 646 8497 7400 58.7943 58.7943 11.98 
0.756 4 6.00 6.00 6.0 6.0 0.002 -0.083 698 640 8501 7404 61.4668 58.7943 11.98 
0.757 4 6.00 6.00 6.0 6.0 0.011 -0.087 703 640 8506 7408 61.4668 58.7943 11.98 
0.758 4 6.00 6.00 6.0 6.0 0.009 -0.083 702 636 8510 7412 61.4668 58.7943 11.99 
0.759 4 6.00 6.00 6.0 6.0 0.007 -0.076 704 639 8514 7416 61.4668 58.7943 11.99 
0.760 4 6.00 6.00 6.0 6.0 0.007 -0.080 698 643 8518 7420 61.4668 56.3446 11.99 
0.761 4 6.00 6.00 6.0 6.0 0.020 -0.083 706 642 8523 7424 61.4668 56.3446 11.99 
0.762 4 6.00 6.00 6.0 6.0 0.004 -0.078 700 639 8527 7428 61.4668 56.3446 11.99 
0.763 4 6.00 6.00 6.0 6.0 0.009 -0.076 696 638 8531 7432 61.4668 56.3446 12.01 
0.764 4 6.00 6.00 6.0 6.0 0.013 -0.080 694 638 8535 7436 61.4668 58.7943 12.01 
0.765 4 6.00 6.00 6.0 6.0 0.016 -0.083 703 638 8540 7440 61.4668 58.7943 12.01 
0.766 4 6.00 6.00 6.0 6.0 0.007 -0.074 701 645 8544 7444 58.7943 56.3446 12.01 
0.767 4 6.00 6.00 6.0 6.0 0.009 -0.074 700 646 8548 7448 61.4668 58.7943 12.01 
0.768 4 6.00 6.00 6.0 6.0 0.004 -0.074 703 642 8553 7452 61.4668 58.7943 11.98 
0.769 4 6.00 6.00 6.0 6.0 0.009 -0.083 704 638 8557 7456 61.4668 58.7943 11.98 
0.770 4 6.00 6.00 6.0 6.0 0.004 -0.083 698 640 8561 7460 61.4668 58.7943 11.98 
0.771 4 6.00 6.00 6.0 6.0 0.004 -0.074 698 640 8565 7464 61.4668 56.3446 11.98 
0.772 4 6.00 6.00 6.0 6.0 0.011 -0.078 705 641 8569 7468 61.4668 56.3446 11.98 
0.773 4 6.00 6.00 6.0 6.0 0.011 -0.083 703 642 8574 7472 61.4668 56.3446 11.99 
0.774 4 6.00 6.00 6.0 6.0 0.016 -0.076 706 639 8578 7476 61.4668 56.3446 11.99 
0.775 4 6.00 6.00 6.0 6.0 0.004 -0.076 700 638 8582 7480 61.4668 56.3446 11.99 
0.776 4 6.00 6.00 6.0 6.0 0.013 -0.078 706 643 8587 7484 61.4668 56.3446 11.99 
0.777 4 6.00 6.00 6.0 6.0 0.009 -0.078 701 638 8591 7488 61.4668 58.7943 11.99 
0.778 4 6.00 6.00 6.0 6.0 0.009 -0.071 700 639 8595 7492 61.4668 58.7943 11.99 
0.779 4 6.00 6.00 6.0 6.0 0.004 -0.069 700 640 8599 7496 61.4668 58.7943 11.99 
0.780 4 6.00 6.00 6.0 6.0 0.013 -0.076 704 645 8604 7500 61.4668 58.7943 11.99 
0.781 4 6.00 6.00 6.0 6.0 0.007 -0.083 699 640 8608 7504 61.4668 61.4668 11.99 
0.782 4 6.00 6.00 6.0 6.0 0.004 -0.076 702 642 8612 7508 61.4668 61.4668 11.99 
0.783 4 6.00 6.00 6.0 6.0 0.004 -0.071 697 641 8616 7513 61.4668 58.7943 11.98 
0.784 4 6.00 6.00 6.0 6.0 0.009 -0.076 701 644 8621 7516 61.4668 58.7943 11.98 
0.785 4 6.00 6.00 6.0 6.0 0.007 -0.080 702 638 8625 7521 61.4668 58.7943 11.98 
0.786 4 6.00 6.00 6.0 6.0 0.007 -0.076 703 637 8629 7525 61.4668 58.7943 11.98 
0.787 4 6.00 6.00 6.0 6.0 0.007 -0.080 689 642 8633 7529 61.4668 58.7943 11.98 
0.788 4 6.00 6.00 6.0 6.0 0.007 -0.080 702 641 8638 7533 61.4668 61.4668 11.99 
0.789 4 6.00 6.00 6.0 6.0 0.009 -0.083 702 642 8642 7537 58.7943 58.7943 11.99 
0.790 4 6.00 6.00 6.0 6.0 0.004 -0.078 699 642 8646 7541 61.4668 56.3446 11.99 
0.791 4 6.00 6.00 6.0 6.0 0.025 -0.076 704 640 8651 7545 61.4668 58.7943 11.99 
0.792 4 6.00 6.00 6.0 6.0 0.002 -0.080 700 639 8655 7549 61.4668 58.7943 11.99 
0.793 4 6.00 6.00 6.0 6.0 0.009 -0.087 700 638 8659 7553 61.4668 58.7943 11.99 
0.794 4 6.00 6.00 6.0 6.0 0.004 -0.078 697 644 8663 7557 61.4668 58.7943 11.99 
0.795 4 6.00 6.00 6.0 6.0 0.013 -0.074 702 644 8668 7561 61.4668 56.3446 11.99 
