%  1    time 0.000 sec
%  2    mission (0) state 2
%  3  4 Motor velocity ref left, right: 2.00 2.00
%  5  6 Motor voltage [V] left, right: 2.0 2.0
%  7 10 Motor current left, right [A]: 0.002 -0.002 679 676
% 11 12 Encoder left, right: 1272 1072
% 13 14 Wheel velocity [r/s] left, right: 0.0000 0.0000
% 15    Battery voltage [V]: 12.02
0.001 2 2.00 2.00 2.0 2.0 0.029 -0.047 707 647 1272 1072 0.0000 0.0000 12.02 
0.002 2 2.00 2.00 2.0 2.0 0.174 -0.071 742 626 1272 1072 0.0000 0.0000 12.02 
0.003 2 2.00 2.00 2.0 2.0 0.252 -0.083 750 618 1272 1072 0.0000 0.0000 12.02 
0.004 2 2.00 2.00 2.0 2.0 0.290 -0.085 758 615 1272 1073 0.0000 0.0030 11.94 
0.005 2 2.00 2.00 2.0 2.0 0.297 -0.087 761 614 1272 1073 0.0000 0.0030 11.94 
0.006 2 2.00 2.00 2.0 2.0 0.295 -0.087 754 613 1272 1073 0.0000 0.0030 11.94 
0.007 2 2.00 2.00 2.0 2.0 0.299 -0.087 755 613 1273 1073 0.0030 0.0030 11.94 
0.008 2 2.00 2.00 2.0 2.0 0.295 -0.085 760 612 1273 1073 0.0030 0.0030 11.94 
0.009 2 2.00 2.00 2.0 2.0 0.275 -0.083 754 615 1273 1073 0.0030 0.0030 11.94 
0.010 2 2.00 2.00 2.0 2.0 0.205 -0.083 740 609 1273 1074 0.0030 2.5229 11.94 
0.011 2 2.00 2.00 2.0 2.0 0.190 -0.080 738 614 1274 1074 0.0030 2.5229 11.94 
0.012 2 2.00 2.00 2.0 2.0 0.199 -0.078 739 615 1274 1074 3.0664 2.5229 11.94 
0.013 2 2.00 2.00 2.0 2.0 0.201 -0.078 738 611 1274 1075 3.0664 4.2793 11.94 
0.014 2 2.00 2.00 2.0 2.0 0.199 -0.076 741 617 1275 1075 3.0664 4.2793 11.96 
0.015 2 2.00 2.00 2.0 2.0 0.192 -0.076 738 624 1275 1076 4.3905 4.2793 11.96 
0.016 2 2.00 2.00 2.0 2.0 0.192 -0.074 742 623 1275 1076 4.3905 5.2211 11.96 
0.017 2 2.00 2.00 2.0 2.0 0.190 -0.074 738 623 1276 1076 5.4308 5.2211 11.96 
0.018 2 2.00 2.00 2.0 2.0 0.165 -0.071 736 626 1276 1077 5.4308 5.5421 11.96 
0.019 2 2.00 2.00 2.0 2.0 0.150 -0.076 735 621 1277 1077 6.2317 5.5421 11.94 
0.020 2 2.00 2.00 2.0 2.0 0.136 -0.067 734 634 1277 1078 6.2317 6.5644 11.94 
0.021 2 2.00 2.00 2.0 2.0 0.123 -0.065 729 634 1278 1078 6.7277 6.5644 11.94 
0.022 2 2.00 2.00 2.0 2.0 0.109 -0.065 728 632 1278 1079 6.7277 7.1172 11.94 
0.023 2 2.00 2.00 2.0 2.0 0.100 -0.065 723 635 1279 1079 7.4301 7.1172 11.94 
0.024 2 2.00 2.00 2.0 2.0 0.098 -0.062 728 637 1279 1080 7.4301 7.3493 11.96 
0.025 2 2.00 2.00 2.0 2.0 0.094 -0.060 721 635 1280 1081 7.9545 7.3493 11.96 
0.026 2 2.00 2.00 2.0 2.0 0.109 -0.058 728 640 1281 1081 7.9545 7.5126 11.96 
0.027 2 2.00 2.00 2.0 2.0 0.109 -0.060 726 634 1281 1082 8.3992 8.2455 11.96 
0.028 2 2.00 2.00 2.0 2.0 0.056 -0.062 713 634 1282 1082 8.8965 8.2455 11.96 
0.029 2 2.00 2.00 2.0 2.0 0.062 -0.062 716 630 1283 1083 8.8965 8.2961 11.98 
0.030 2 2.00 2.00 2.0 2.0 0.065 -0.062 716 629 1283 1084 8.8965 8.6132 11.98 
0.031 2 2.00 2.00 2.0 2.0 0.060 -0.065 718 633 1284 1084 9.0151 8.6132 11.98 
0.032 2 2.00 2.00 2.0 2.0 0.062 -0.065 713 636 1285 1085 9.0151 8.8965 11.98 
0.033 2 2.00 2.00 2.0 2.0 0.056 -0.060 724 641 1285 1086 9.5230 9.3260 11.98 
0.034 2 2.00 2.00 2.0 2.0 0.049 -0.058 713 642 1286 1086 9.6591 9.3260 11.96 
0.035 2 2.00 2.00 2.0 2.0 0.056 -0.056 713 644 1287 1087 10.0916 9.1370 11.96 
0.036 2 2.00 2.00 2.0 2.0 0.067 -0.056 715 645 1288 1088 11.1758 9.5906 11.96 
0.037 2 2.00 2.00 2.0 2.0 0.071 -0.056 722 644 1288 1089 11.1758 9.5906 11.96 
0.038 2 2.00 2.00 2.0 2.0 0.058 -0.056 712 643 1289 1089 10.7323 10.0168 11.96 
0.039 2 2.00 2.00 2.0 2.0 0.009 -0.056 703 642 1290 1090 10.3227 10.1674 11.98 
0.040 2 2.00 2.00 2.0 2.0 0.004 -0.056 705 644 1291 1091 10.9941 9.4564 11.98 
0.041 2 2.00 2.00 2.0 2.0 0.013 -0.056 708 646 1292 1092 11.8620 9.4564 11.98 
0.042 2 2.00 2.00 2.0 2.0 0.020 -0.056 710 644 1293 1092 11.8620 10.4827 11.98 
0.043 2 2.00 2.00 2.0 2.0 0.020 -0.058 708 642 1293 1093 11.0842 11.9670 11.98 
0.046 2 2.00 2.00 2.0 2.0 0.013 -0.054 705 644 1295 1095 10.0916 10.8182 11.93 
0.046 2 2.00 2.00 2.0 2.0 0.007 -0.056 706 644 1296 1096 11.8620 10.9054 11.93 
0.047 2 2.00 2.00 2.0 2.0 0.007 -0.058 707 636 1297 1096 11.8620 10.9054 11.93 
0.048 2 2.00 2.00 2.0 2.0 0.007 -0.056 699 641 1298 1097 11.8620 11.0842 11.93 
0.049 2 2.00 2.00 2.0 2.0 0.002 -0.056 704 637 1299 1098 12.6380 11.4599 11.93 
0.050 2 2.00 2.00 2.0 2.0 0.009 -0.056 703 642 1300 1099 12.0738 12.4061 11.98 
0.051 2 2.00 2.00 2.0 2.0 0.002 -0.054 707 644 1300 1100 13.1288 11.4599 11.98 
0.052 2 2.00 2.00 2.0 2.0 0.004 -0.051 704 650 1301 1101 12.5210 11.4599 11.98 
0.053 2 2.00 2.00 2.0 2.0 0.002 -0.049 702 652 1302 1102 12.1826 11.6575 11.98 
0.054 2 2.00 2.00 2.0 2.0 0.004 -0.049 704 650 1303 1102 12.6380 11.8620 11.98 
0.055 2 2.00 2.00 2.0 2.0 0.009 -0.049 709 648 1304 1103 12.7573 11.6575 11.96 
0.056 2 2.00 2.00 2.0 2.0 0.027 -0.049 714 651 1305 1104 13.2575 11.8620 11.96 
0.057 2 2.00 2.00 2.0 2.0 0.007 -0.049 695 650 1306 1105 13.3888 12.1826 11.96 
0.058 2 2.00 2.00 2.0 2.0 0.004 -0.049 699 651 1307 1106 13.2575 12.2934 11.96 
0.059 2 2.00 2.00 2.0 2.0 0.007 -0.049 697 650 1308 1107 12.7573 11.3636 11.96 
0.060 2 2.00 2.00 2.0 2.0 0.004 -0.051 701 651 1309 1108 13.5227 12.2934 11.98 
0.061 2 2.00 2.00 2.0 2.0 0.011 -0.049 699 649 1310 1109 13.5227 12.2934 11.98 
0.062 2 2.00 2.00 2.0 2.0 0.007 -0.051 698 648 1311 1110 13.5227 13.2575 11.98 
0.063 2 2.00 2.00 2.0 2.0 0.007 -0.049 699 647 1312 1111 13.6593 12.7573 11.98 
0.064 2 2.00 2.00 2.0 2.0 0.004 -0.049 699 644 1313 1111 13.7987 12.0738 11.98 
0.065 2 2.00 2.00 2.0 2.0 0.013 -0.049 686 646 1314 1112 13.9409 12.4061 11.98 
0.066 2 2.00 2.00 2.0 2.0 0.004 -0.051 697 646 1315 1113 13.9409 12.6380 11.98 
0.067 2 2.00 2.00 2.0 2.0 0.004 -0.047 695 650 1316 1114 13.9409 12.8788 11.98 
0.068 2 2.00 2.00 2.0 2.0 0.007 -0.047 697 649 1317 1115 13.9409 12.1826 11.98 
0.069 2 2.00 2.00 2.0 2.0 0.004 -0.049 695 649 1318 1116 13.9409 12.6380 11.98 
0.070 2 2.00 2.00 2.0 2.0 0.004 -0.049 702 654 1319 1117 13.9409 12.4061 11.93 
0.071 2 2.00 2.00 2.0 2.0 0.004 -0.045 700 657 1320 1118 13.5227 13.0026 11.93 
0.072 2 2.00 2.00 2.0 2.0 0.009 -0.049 708 656 1321 1119 13.7987 13.3888 11.93 
0.073 2 2.00 2.00 2.0 2.0 0.007 -0.047 698 652 1322 1120 13.9409 12.8788 11.93 
0.074 2 2.00 2.00 2.0 2.0 0.007 -0.047 696 655 1323 1121 14.0861 12.8788 11.93 
0.075 2 2.00 2.00 2.0 2.0 0.011 -0.049 700 653 1325 1122 14.2344 13.2575 11.99 
0.076 2 2.00 2.00 2.0 2.0 0.004 -0.049 691 652 1326 1123 14.3858 13.2575 11.99 
0.077 2 2.00 2.00 2.0 2.0 0.007 -0.047 693 654 1327 1124 14.2344 13.1288 11.99 
0.078 2 2.00 2.00 2.0 2.0 0.007 -0.049 691 653 1328 1125 14.3858 12.2934 11.99 
0.079 2 2.00 2.00 2.0 2.0 0.011 -0.049 695 648 1329 1126 14.6986 13.3888 11.99 
0.080 2 2.00 2.00 2.0 2.0 0.002 -0.047 693 649 1330 1127 15.0252 13.5227 11.99 
0.081 2 2.00 2.00 2.0 2.0 0.011 -0.047 692 650 1331 1128 14.8601 13.2575 11.99 
0.082 2 2.00 2.00 2.0 2.0 0.007 -0.047 695 650 1332 1129 14.6986 13.2575 11.99 
0.083 2 2.00 2.00 2.0 2.0 0.011 -0.045 691 651 1333 1130 15.0252 12.8788 11.99 
0.084 2 2.00 2.00 2.0 2.0 0.009 -0.045 695 652 1334 1131 14.8601 13.2575 11.99 
0.085 2 2.00 2.00 2.0 2.0 0.007 -0.047 699 648 1336 1132 15.0252 13.3888 11.99 
0.086 2 2.00 2.00 2.0 2.0 0.002 -0.049 700 646 1337 1133 15.7241 13.5227 11.99 
0.087 2 2.00 2.00 2.0 2.0 0.004 -0.051 695 651 1338 1134 14.6986 13.3888 11.99 
0.088 2 2.00 2.00 2.0 2.0 0.009 -0.047 690 654 1339 1135 15.1940 13.5227 11.99 
0.089 2 2.00 2.00 2.0 2.0 0.007 -0.047 695 657 1340 1136 15.9091 13.1288 11.99 
0.090 2 2.00 2.00 2.0 2.0 0.009 -0.045 691 657 1341 1137 15.7241 13.5227 11.99 
0.091 2 2.00 2.00 2.0 2.0 0.009 -0.047 696 657 1342 1138 14.8601 13.6593 11.99 
0.092 2 2.00 2.00 2.0 2.0 0.013 -0.045 695 659 1343 1139 15.1940 13.7987 11.99 
0.093 2 2.00 2.00 2.0 2.0 0.007 -0.045 693 659 1345 1140 15.5433 12.5210 11.99 
0.094 2 2.00 2.00 2.0 2.0 0.007 -0.047 693 656 1346 1141 15.7241 14.3858 11.99 
0.095 2 2.00 2.00 2.0 2.0 0.009 -0.051 696 651 1347 1142 15.9091 14.2344 12.01 
0.096 2 2.00 2.00 2.0 2.0 0.009 -0.047 692 650 1348 1143 16.4911 13.1288 12.01 
0.097 2 2.00 2.00 2.0 2.0 0.009 -0.047 693 648 1349 1144 16.2924 12.1826 12.01 
0.098 2 2.00 2.00 2.0 2.0 0.007 -0.047 690 646 1350 1145 15.7241 12.8788 12.01 
0.099 2 2.00 2.00 2.0 2.0 0.004 -0.047 696 647 1352 1146 15.5433 13.2575 12.01 
0.100 2 2.00 2.00 2.0 2.0 0.007 -0.045 703 647 1353 1147 15.3667 14.3858 11.98 
0.101 2 2.00 2.00 2.0 2.0 0.009 -0.047 695 653 1354 1148 15.7241 14.2344 11.98 
0.102 2 2.00 2.00 2.0 2.0 0.007 -0.045 696 657 1355 1149 15.5433 14.0861 11.98 
0.103 2 2.00 2.00 2.0 2.0 0.007 -0.045 690 659 1356 1150 15.1940 14.2344 11.98 
0.104 2 2.00 2.00 2.0 2.0 0.009 -0.049 690 656 1357 1151 15.3667 14.0861 11.98 
0.105 2 2.00 2.00 2.0 2.0 0.011 -0.047 693 660 1358 1152 15.5433 13.9409 11.99 
0.106 2 2.00 2.00 2.0 2.0 0.011 -0.045 694 661 1359 1153 15.5433 14.0861 11.99 
0.107 2 2.00 2.00 2.0 2.0 0.009 -0.045 695 659 1361 1154 15.5433 14.2344 11.99 
0.108 2 2.00 2.00 2.0 2.0 0.011 -0.045 688 659 1362 1155 15.7241 13.1288 11.99 
0.109 2 2.00 2.00 2.0 2.0 0.011 -0.045 691 655 1363 1156 15.7241 13.5227 11.99 
0.110 2 2.00 2.00 2.0 2.0 0.009 -0.049 693 656 1364 1157 15.9091 14.2344 11.99 
0.111 2 2.00 2.00 2.0 2.0 0.009 -0.045 692 656 1365 1158 15.9091 14.2344 11.99 
0.112 2 2.00 2.00 2.0 2.0 0.009 -0.047 694 658 1367 1159 16.0984 13.2575 11.99 
0.113 2 2.00 2.00 2.0 2.0 0.009 -0.047 699 653 1368 1160 16.0984 13.6593 11.99 
0.114 2 2.00 2.00 2.0 2.0 0.004 -0.047 701 657 1369 1161 16.0984 13.7987 11.99 
0.115 2 2.00 2.00 2.0 2.0 0.009 -0.045 695 657 1370 1162 16.0984 14.0861 11.99 
0.116 2 2.00 2.00 2.0 2.0 0.007 -0.047 695 655 1371 1163 16.0984 13.5227 11.99 
0.117 2 2.00 2.00 2.0 2.0 0.009 -0.045 691 656 1372 1164 16.0984 13.7987 11.99 
0.118 2 2.00 2.00 2.0 2.0 0.016 -0.047 693 650 1374 1165 16.2924 13.5227 11.99 
0.119 2 2.00 2.00 2.0 2.0 0.009 -0.047 688 647 1375 1166 16.0984 13.9409 11.99 
0.120 2 2.00 2.00 2.0 2.0 0.013 -0.045 690 651 1376 1168 16.0984 14.5405 11.99 
0.121 2 2.00 2.00 2.0 2.0 0.009 -0.045 692 649 1377 1169 16.2924 14.3858 11.99 
0.122 2 2.00 2.00 2.0 2.0 0.016 -0.047 689 654 1378 1170 16.6947 14.2344 11.99 
0.123 2 2.00 2.00 2.0 2.0 0.013 -0.045 689 653 1380 1171 16.4911 14.3858 11.99 
0.124 2 2.00 2.00 2.0 2.0 0.009 -0.045 687 656 1381 1172 16.4911 14.3858 11.99 
0.125 2 2.00 2.00 2.0 2.0 0.013 -0.045 692 659 1382 1173 16.2924 13.6593 11.99 
0.126 2 2.00 2.00 2.0 2.0 0.011 -0.047 686 654 1383 1174 16.2924 13.9409 11.99 
0.127 2 2.00 2.00 2.0 2.0 0.011 -0.047 696 659 1385 1175 17.1173 14.2344 11.99 
0.128 2 2.00 2.00 2.0 2.0 0.007 -0.047 685 661 1386 1176 15.9091 14.2344 11.99 
0.129 2 2.00 2.00 2.0 2.0 0.011 -0.045 690 663 1387 1177 16.0984 14.0861 11.99 
0.130 2 2.00 2.00 2.0 2.0 0.011 -0.042 689 664 1388 1178 16.6947 14.2344 11.99 
0.131 2 2.00 2.00 2.0 2.0 0.007 -0.042 689 661 1389 1179 16.4911 14.2344 11.99 
0.132 2 2.00 2.00 2.0 2.0 0.009 -0.042 691 656 1390 1180 15.5433 14.2344 11.99 
0.133 2 2.00 2.00 2.0 2.0 0.009 -0.047 691 656 1392 1181 15.9091 14.3858 11.99 
0.134 2 2.00 2.00 2.0 2.0 0.013 -0.047 692 656 1393 1182 16.2924 14.5405 11.99 
0.135 2 2.00 2.00 2.0 2.0 0.013 -0.047 687 655 1394 1183 16.6947 14.3858 12.01 
0.136 2 2.00 2.00 2.0 2.0 0.009 -0.045 690 656 1395 1184 16.4911 14.3858 12.01 
0.137 2 2.00 2.00 2.0 2.0 0.011 -0.047 689 653 1397 1185 16.9034 14.5405 12.01 
0.138 2 2.00 2.00 2.0 2.0 0.016 -0.045 691 653 1398 1186 16.2924 14.6986 12.01 
0.139 2 2.00 2.00 2.0 2.0 0.007 -0.045 692 651 1399 1187 16.2924 13.3888 12.01 
0.140 2 2.00 2.00 2.0 2.0 0.013 -0.045 695 650 1400 1189 16.2924 13.9409 11.99 
0.141 2 2.00 2.00 2.0 2.0 0.007 -0.045 698 651 1401 1190 16.4911 14.8601 11.99 
0.142 2 2.00 2.00 2.0 2.0 0.009 -0.047 688 651 1403 1191 16.6947 13.6593 11.99 
0.143 2 2.00 2.00 2.0 2.0 0.013 -0.049 694 651 1404 1192 16.2924 13.6593 11.99 
0.144 2 2.00 2.00 2.0 2.0 0.011 -0.042 687 654 1405 1193 16.4911 14.0861 11.99 
0.145 2 2.00 2.00 2.0 2.0 0.018 -0.047 686 655 1406 1194 16.4911 14.3858 11.99 
0.146 2 2.00 2.00 2.0 2.0 0.013 -0.047 689 658 1407 1195 16.4911 14.8601 11.99 
0.147 2 2.00 2.00 2.0 2.0 0.009 -0.047 689 657 1409 1196 16.4911 14.5405 11.99 
0.148 2 2.00 2.00 2.0 2.0 0.013 -0.045 685 658 1410 1197 16.6947 14.3858 11.99 
0.149 2 2.00 2.00 2.0 2.0 0.013 -0.045 690 659 1411 1198 16.6947 14.5405 11.99 
0.150 2 2.00 2.00 2.0 2.0 0.009 -0.047 691 656 1412 1199 16.6947 14.3858 11.98 
0.151 2 2.00 2.00 2.0 2.0 0.009 -0.042 688 655 1414 1200 16.9034 14.3858 11.98 
0.152 2 2.00 2.00 2.0 2.0 0.009 -0.042 691 656 1415 1201 16.9034 14.5405 11.98 
0.153 2 2.00 2.00 2.0 2.0 0.007 -0.045 698 651 1416 1202 16.6947 14.5405 11.98 
0.154 2 2.00 2.00 2.0 2.0 0.004 -0.042 696 653 1417 1203 16.9034 13.5227 11.98 
0.155 2 2.00 2.00 2.0 2.0 0.009 -0.045 688 649 1419 1205 16.6947 13.9409 11.99 
0.156 2 2.00 2.00 2.0 2.0 0.009 -0.047 692 648 1420 1206 16.6947 14.6986 11.99 
0.157 2 2.00 2.00 2.0 2.0 0.011 -0.047 690 657 1421 1207 16.6947 14.5405 11.99 
0.158 2 2.00 2.00 2.0 2.0 0.013 -0.047 687 654 1422 1208 16.4911 14.3858 11.99 
0.159 2 2.00 2.00 2.0 2.0 0.013 -0.047 687 656 1423 1209 16.4911 14.5405 11.99 
0.160 2 2.00 2.00 2.0 2.0 0.013 -0.042 689 659 1425 1210 16.4911 14.6986 11.99 
0.161 2 2.00 2.00 2.0 2.0 0.011 -0.042 687 660 1426 1211 16.9034 14.3858 11.99 
0.162 2 2.00 2.00 2.0 2.0 0.011 -0.045 688 657 1427 1212 16.9034 14.3858 11.99 
0.163 2 2.00 2.00 2.0 2.0 0.009 -0.045 685 659 1428 1213 16.6947 14.2344 11.99 
0.164 2 2.00 2.00 2.0 2.0 0.011 -0.042 684 663 1430 1214 16.9034 14.5405 11.99 
0.165 2 2.00 2.00 2.0 2.0 0.016 -0.045 687 662 1431 1215 16.6947 15.1940 11.99 
0.166 2 2.00 2.00 2.0 2.0 0.009 -0.042 690 658 1432 1216 17.3368 14.8601 11.99 
0.167 2 2.00 2.00 2.0 2.0 0.004 -0.042 694 656 1433 1217 17.1173 14.5405 11.99 
0.168 2 2.00 2.00 2.0 2.0 0.009 -0.045 683 654 1435 1219 16.4911 14.6986 11.99 
0.169 2 2.00 2.00 2.0 2.0 0.016 -0.047 692 651 1436 1220 17.3368 14.8601 11.99 
0.170 2 2.00 2.00 2.0 2.0 0.009 -0.045 686 648 1437 1221 17.1173 14.5405 11.99 
0.171 2 2.00 2.00 2.0 2.0 0.009 -0.047 688 647 1438 1222 16.0984 13.3888 11.99 
0.172 2 2.00 2.00 2.0 2.0 0.011 -0.045 683 658 1440 1223 16.2924 14.3858 11.99 
0.173 2 2.00 2.00 2.0 2.0 0.011 -0.045 690 658 1441 1224 16.9034 14.3858 11.99 
0.174 2 2.00 2.00 2.0 2.0 0.011 -0.045 687 662 1442 1225 17.3368 14.0861 11.99 
0.175 2 2.00 2.00 2.0 2.0 0.013 -0.045 684 663 1443 1226 17.1173 14.3858 11.99 
0.176 2 2.00 2.00 2.0 2.0 0.009 -0.045 688 658 1445 1227 17.7930 14.3858 11.99 
0.177 2 2.00 2.00 2.0 2.0 0.016 -0.047 688 659 1446 1228 16.9034 14.3858 11.99 
0.178 2 2.00 2.00 2.0 2.0 0.011 -0.047 690 657 1447 1229 16.9034 14.3858 11.99 
0.179 2 2.00 2.00 2.0 2.0 0.011 -0.047 692 655 1448 1230 16.9034 14.5405 11.99 
0.180 2 2.00 2.00 2.0 2.0 0.007 -0.045 694 657 1450 1231 17.1173 14.3858 11.94 
0.181 2 2.00 2.00 2.0 2.0 0.013 -0.042 688 656 1451 1232 17.1173 14.5405 11.94 
0.182 2 2.00 2.00 2.0 2.0 0.011 -0.045 688 648 1452 1233 16.6947 14.6986 11.94 
0.183 2 2.00 2.00 2.0 2.0 0.013 -0.045 689 649 1453 1234 16.9034 14.8601 11.94 
0.184 2 2.00 2.00 2.0 2.0 0.011 -0.047 683 655 1455 1236 16.9034 13.5227 11.94 
0.185 2 2.00 2.00 2.0 2.0 0.013 -0.045 690 653 1456 1237 16.9034 15.1940 11.99 
0.186 2 2.00 2.00 2.0 2.0 0.009 -0.049 689 650 1457 1238 17.1173 15.1940 11.99 
0.187 2 2.00 2.00 2.0 2.0 0.011 -0.047 686 657 1458 1239 17.1173 13.0026 11.99 
0.188 2 2.00 2.00 2.0 2.0 0.016 -0.047 686 657 1460 1240 17.1173 13.7987 11.99 
0.189 2 2.00 2.00 2.0 2.0 0.013 -0.045 690 657 1461 1241 17.1173 14.2344 11.99 
0.190 2 2.00 2.00 2.0 2.0 0.011 -0.045 689 658 1462 1242 17.1173 14.6986 12.01 
0.191 2 2.00 2.00 2.0 2.0 0.009 -0.045 691 661 1463 1243 17.1173 15.3667 12.01 
0.192 2 2.00 2.00 2.0 2.0 0.007 -0.047 698 660 1465 1244 16.6947 15.0252 12.01 
0.193 2 2.00 2.00 2.0 2.0 0.009 -0.045 693 664 1466 1245 16.9034 14.8601 12.01 
0.194 2 2.00 2.00 2.0 2.0 0.013 -0.047 692 660 1467 1246 16.9034 15.0252 12.01 
0.195 2 2.00 2.00 2.0 2.0 0.009 -0.045 689 659 1468 1248 17.1173 14.8601 11.99 
0.196 2 2.00 2.00 2.0 2.0 0.013 -0.042 690 662 1470 1249 17.1173 14.8601 11.99 
0.197 2 2.00 2.00 2.0 2.0 0.016 -0.045 685 656 1471 1250 16.9034 15.0252 11.99 
0.198 2 2.00 2.00 2.0 2.0 0.011 -0.042 687 653 1472 1251 16.9034 14.3858 11.99 
0.199 2 2.00 2.00 2.0 2.0 0.007 -0.047 690 654 1473 1252 17.1173 14.5405 11.99 
0.200 2 2.00 2.00 2.0 2.0 0.013 -0.045 690 649 1475 1253 17.3368 15.1940 11.99 
0.201 2 2.00 2.00 2.0 2.0 0.011 -0.047 687 650 1476 1254 16.9034 15.0252 11.99 
0.202 2 2.00 2.00 2.0 2.0 0.011 -0.045 685 650 1477 1255 17.1173 14.3858 11.99 
0.203 2 2.00 2.00 2.0 2.0 0.009 -0.047 689 654 1478 1256 17.1173 14.3858 11.99 
0.204 2 2.00 2.00 2.0 2.0 0.007 -0.047 690 657 1480 1257 17.1173 14.5405 11.99 
0.205 2 2.00 2.00 2.0 2.0 0.007 -0.045 695 658 1481 1258 17.5619 14.6986 11.99 
0.206 2 2.00 2.00 2.0 2.0 0.016 -0.045 690 661 1482 1259 16.9034 14.3858 11.99 
0.207 2 2.00 2.00 2.0 2.0 0.011 -0.042 690 659 1483 1260 16.9034 14.3858 11.99 
0.208 2 2.00 2.00 2.0 2.0 0.013 -0.045 690 659 1485 1262 17.5619 14.2344 11.99 
0.209 2 2.00 2.00 2.0 2.0 0.011 -0.042 688 662 1486 1263 16.2924 15.1940 11.99 
0.210 2 2.00 2.00 2.0 2.0 0.011 -0.042 691 659 1487 1264 16.6947 14.8601 11.99 
0.211 2 2.00 2.00 2.0 2.0 0.009 -0.047 689 659 1488 1265 17.1173 14.6986 11.99 
0.212 2 2.00 2.00 2.0 2.0 0.011 -0.045 690 659 1490 1266 17.1173 14.8601 11.99 
0.213 2 2.00 2.00 2.0 2.0 0.011 -0.045 684 662 1491 1267 17.3368 15.0252 11.99 
0.214 2 2.00 2.00 2.0 2.0 0.016 -0.047 691 657 1492 1268 17.7930 14.8601 11.99 
0.215 2 2.00 2.00 2.0 2.0 0.013 -0.047 688 653 1494 1269 17.5619 14.2344 11.99 
0.216 2 2.00 2.00 2.0 2.0 0.009 -0.045 691 653 1495 1270 16.9034 14.6986 11.99 
0.217 2 2.00 2.00 2.0 2.0 0.013 -0.042 690 652 1496 1271 16.9034 15.0252 11.99 
0.218 2 2.00 2.00 2.0 2.0 0.007 -0.042 695 653 1497 1272 17.1173 14.8601 11.99 
0.219 2 2.00 2.00 2.0 2.0 0.013 -0.045 686 654 1499 1274 17.3368 14.5405 11.99 
0.220 2 2.00 2.00 2.0 2.0 0.016 -0.045 685 655 1500 1275 16.9034 14.8601 11.99 
0.221 2 2.00 2.00 2.0 2.0 0.013 -0.045 689 653 1501 1276 17.1173 14.8601 11.99 
0.222 2 2.00 2.00 2.0 2.0 0.009 -0.047 684 654 1502 1277 17.1173 14.8601 11.99 
0.223 2 2.00 2.00 2.0 2.0 0.009 -0.047 688 654 1504 1278 17.1173 15.0252 11.99 
0.224 2 2.00 2.00 2.0 2.0 0.016 -0.047 688 656 1505 1279 17.1173 14.8601 11.99 
0.225 2 2.00 2.00 2.0 2.0 0.016 -0.045 680 657 1506 1280 17.1173 14.8601 11.99 
0.226 2 2.00 2.00 2.0 2.0 0.013 -0.045 690 659 1507 1281 17.1173 15.0252 11.99 
0.227 2 2.00 2.00 2.0 2.0 0.009 -0.042 686 663 1509 1282 17.1173 15.1940 11.99 
0.228 2 2.00 2.00 2.0 2.0 0.011 -0.045 686 660 1510 1283 17.3368 14.3858 11.99 
0.229 2 2.00 2.00 2.0 2.0 0.011 -0.045 688 661 1511 1285 17.3368 14.6986 11.99 
0.230 2 2.00 2.00 2.0 2.0 0.007 -0.045 691 659 1512 1286 16.9034 15.5433 11.99 
0.231 2 2.00 2.00 2.0 2.0 0.013 -0.047 690 658 1514 1287 17.1173 14.0861 11.99 
0.232 2 2.00 2.00 2.0 2.0 0.007 -0.045 693 655 1515 1288 17.1173 14.0861 11.99 
0.233 2 2.00 2.00 2.0 2.0 0.011 -0.045 686 659 1516 1289 17.3368 14.5405 11.99 
0.234 2 2.00 2.00 2.0 2.0 0.011 -0.042 686 657 1517 1290 17.3368 15.0252 11.99 
0.235 2 2.00 2.00 2.0 2.0 0.016 -0.045 684 654 1519 1291 17.1173 15.5433 11.99 
0.236 2 2.00 2.00 2.0 2.0 0.013 -0.045 684 659 1520 1292 17.1173 15.3667 11.99 
0.237 2 2.00 2.00 2.0 2.0 0.009 -0.047 693 655 1521 1293 17.3368 15.1940 11.99 
0.238 2 2.00 2.00 2.0 2.0 0.011 -0.045 683 650 1523 1294 17.5619 15.1940 11.99 
0.239 2 2.00 2.00 2.0 2.0 0.018 -0.047 688 648 1524 1296 17.1173 14.8601 11.99 
0.240 2 2.00 2.00 2.0 2.0 0.013 -0.045 684 651 1525 1297 17.3368 14.6986 11.99 
0.241 2 2.00 2.00 2.0 2.0 0.013 -0.042 685 652 1526 1298 17.3368 14.8601 11.99 
0.242 2 2.00 2.00 2.0 2.0 0.011 -0.040 687 657 1528 1299 17.3368 14.3858 11.99 
0.243 2 2.00 2.00 2.0 2.0 0.011 -0.045 692 656 1529 1300 17.7930 14.5405 11.99 
0.246 2 2.00 2.00 2.0 2.0 0.013 -0.047 686 657 1533 1303 17.1173 15.1940 11.99 
0.247 2 2.00 2.00 2.0 2.0 0.011 -0.045 686 653 1534 1304 16.9034 14.6986 11.98 
0.248 2 2.00 2.00 2.0 2.0 0.011 -0.045 693 650 1535 1305 16.6947 14.8601 11.98 
0.249 2 2.00 2.00 2.0 2.0 0.013 -0.042 685 660 1536 1306 17.3368 15.0252 11.98 
0.249 2 2.00 2.00 2.0 2.0 0.011 -0.042 688 662 1537 1307 17.5619 15.0252 11.98 
0.250 2 2.00 2.00 2.0 2.0 0.011 -0.042 687 659 1538 1308 17.7930 14.6986 11.98 
0.251 2 2.00 2.00 2.0 2.0 0.013 -0.045 686 656 1539 1309 17.5619 14.6986 11.94 
0.252 2 2.00 2.00 2.0 2.0 0.009 -0.047 689 657 1541 1310 18.2739 14.5405 11.94 
0.253 2 2.00 2.00 2.0 2.0 0.011 -0.045 683 653 1542 1311 17.3368 15.3667 11.94 
0.254 2 2.00 2.00 2.0 2.0 0.011 -0.047 689 651 1543 1312 17.3368 15.1940 11.94 
0.255 2 2.00 2.00 2.0 2.0 0.007 -0.045 691 649 1544 1313 17.3368 14.8601 11.94 
0.256 2 2.00 2.00 2.0 2.0 0.009 -0.042 695 651 1546 1314 17.3368 15.0252 11.99 
0.257 2 2.00 2.00 2.0 2.0 0.011 -0.045 682 654 1547 1315 17.3368 15.0252 11.99 
0.258 2 2.00 2.00 2.0 2.0 0.009 -0.042 685 655 1548 1316 16.9034 15.0252 11.99 
0.259 2 2.00 2.00 2.0 2.0 0.013 -0.047 681 657 1549 1317 17.1173 14.3858 11.99 
0.260 2 2.00 2.00 2.0 2.0 0.013 -0.045 685 664 1551 1319 17.1173 14.6986 11.99 
0.261 2 2.00 2.00 2.0 2.0 0.011 -0.045 683 660 1552 1320 17.1173 15.0252 11.99 
0.262 2 2.00 2.00 2.0 2.0 0.009 -0.042 688 663 1553 1321 17.3368 14.6986 11.99 
0.263 2 2.00 2.00 2.0 2.0 0.013 -0.042 682 666 1554 1322 17.3368 15.0252 11.99 
0.264 2 2.00 2.00 2.0 2.0 0.018 -0.042 687 664 1556 1323 17.3368 14.8601 11.99 
0.265 2 2.00 2.00 2.0 2.0 0.009 -0.045 686 661 1557 1324 17.3368 14.8601 11.99 
0.266 2 2.00 2.00 2.0 2.0 0.011 -0.047 687 656 1558 1325 17.3368 14.8601 11.98 
0.267 2 2.00 2.00 2.0 2.0 0.013 -0.045 685 657 1560 1326 17.3368 15.0252 11.98 
0.268 2 2.00 2.00 2.0 2.0 0.004 -0.045 697 654 1561 1327 17.3368 14.8601 11.98 
0.269 2 2.00 2.00 2.0 2.0 0.013 -0.042 684 658 1562 1328 17.1173 14.8601 11.98 
0.270 2 2.00 2.00 2.0 2.0 0.009 -0.045 691 649 1563 1330 17.1173 15.0252 11.98 
0.271 2 2.00 2.00 2.0 2.0 0.009 -0.042 688 654 1565 1331 17.3368 15.1940 11.99 
0.272 2 2.00 2.00 2.0 2.0 0.009 -0.047 688 654 1566 1332 17.3368 14.3858 11.99 
0.273 2 2.00 2.00 2.0 2.0 0.013 -0.045 679 656 1567 1333 17.3368 15.7241 11.99 
0.274 2 2.00 2.00 2.0 2.0 0.013 -0.045 687 656 1568 1334 17.3368 15.3667 11.99 
0.275 2 2.00 2.00 2.0 2.0 0.011 -0.047 684 654 1570 1335 17.5619 13.1288 11.99 
0.276 2 2.00 2.00 2.0 2.0 0.013 -0.047 684 656 1571 1336 17.5619 13.7987 11.99 
0.277 2 2.00 2.00 2.0 2.0 0.011 -0.047 679 656 1572 1337 17.3368 14.2344 11.99 
0.278 2 2.00 2.00 2.0 2.0 0.013 -0.045 687 656 1574 1338 17.5619 14.6986 11.99 
0.279 2 2.00 2.00 2.0 2.0 0.009 -0.045 683 662 1575 1339 17.3368 15.3667 11.99 
0.280 2 2.00 2.00 2.0 2.0 0.009 -0.045 691 660 1576 1340 18.0303 15.0252 11.99 
0.281 2 2.00 2.00 2.0 2.0 0.011 -0.042 687 660 1578 1342 17.7930 14.8601 11.99 
0.282 2 2.00 2.00 2.0 2.0 0.009 -0.045 686 659 1579 1343 17.3368 15.0252 11.99 
0.283 2 2.00 2.00 2.0 2.0 0.013 -0.045 685 660 1580 1344 18.0303 14.8601 11.99 
0.284 2 2.00 2.00 2.0 2.0 0.011 -0.042 684 653 1581 1345 18.0303 15.0252 11.99 
0.285 2 2.00 2.00 2.0 2.0 0.018 -0.045 685 653 1583 1346 16.9034 15.0252 11.99 
0.286 2 2.00 2.00 2.0 2.0 0.009 -0.045 686 652 1584 1347 17.5619 14.5405 12.01 
0.287 2 2.00 2.00 2.0 2.0 0.009 -0.045 685 652 1585 1348 17.7930 14.6986 12.01 
0.288 2 2.00 2.00 2.0 2.0 0.013 -0.042 686 652 1587 1349 18.0303 15.3667 12.01 
0.289 2 2.00 2.00 2.0 2.0 0.013 -0.045 682 650 1588 1350 18.2739 15.1940 12.01 
0.290 2 2.00 2.00 2.0 2.0 0.009 -0.045 684 655 1589 1351 18.0303 14.8601 12.01 
0.291 2 2.00 2.00 2.0 2.0 0.018 -0.042 686 655 1591 1353 17.5619 14.8601 11.99 
0.292 2 2.00 2.00 2.0 2.0 0.009 -0.045 687 660 1592 1354 17.3368 15.0252 11.99 
0.293 2 2.00 2.00 2.0 2.0 0.009 -0.042 696 667 1593 1355 17.5619 14.8601 11.99 
0.294 2 2.00 2.00 2.0 2.0 0.013 -0.045 684 660 1594 1356 17.7930 14.8601 11.99 
0.295 2 2.00 2.00 2.0 2.0 0.016 -0.045 686 660 1596 1357 17.7930 14.6986 11.99 
0.296 2 2.00 2.00 2.0 2.0 0.013 -0.045 688 659 1597 1358 17.5619 15.0252 11.99 
0.297 2 2.00 2.00 2.0 2.0 0.013 -0.042 685 661 1598 1359 17.5619 15.5433 11.99 
0.298 2 2.00 2.00 2.0 2.0 0.013 -0.042 686 663 1599 1360 17.3368 15.1940 11.99 
0.299 2 2.00 2.00 2.0 2.0 0.011 -0.045 688 664 1601 1361 17.3368 15.0252 11.99 
0.300 2 2.00 2.00 2.0 2.0 0.013 -0.042 683 662 1602 1363 17.3368 15.1940 11.99 
0.301 2 2.00 2.00 2.0 2.0 0.013 -0.042 688 661 1603 1364 17.3368 15.3667 11.99 
0.302 2 2.00 2.00 2.0 2.0 0.011 -0.045 686 655 1605 1365 17.1173 14.8601 11.99 
0.303 2 2.00 2.00 2.0 2.0 0.013 -0.047 688 656 1606 1366 17.3368 15.0252 11.99 
0.304 2 2.00 2.00 2.0 2.0 0.011 -0.042 694 660 1607 1367 17.3368 15.3667 11.99 
0.305 2 2.00 2.00 2.0 2.0 0.013 -0.045 694 661 1608 1368 16.9034 15.1940 11.99 
0.306 2 2.00 2.00 2.0 2.0 0.007 -0.040 694 658 1610 1369 17.1173 14.8601 11.99 
0.307 2 2.00 2.00 2.0 2.0 0.009 -0.042 691 656 1611 1370 17.1173 15.1940 11.99 
0.308 2 2.00 2.00 2.0 2.0 0.009 -0.045 692 652 1612 1371 17.3368 15.0252 11.99 
0.309 2 2.00 2.00 2.0 2.0 0.011 -0.042 691 652 1613 1372 17.3368 14.8601 11.99 
0.310 2 2.00 2.00 2.0 2.0 0.011 -0.049 688 649 1615 1374 17.1173 14.8601 11.99 
0.311 2 2.00 2.00 2.0 2.0 0.011 -0.045 688 653 1616 1375 17.3368 15.0252 11.99 
0.312 2 2.00 2.00 2.0 2.0 0.009 -0.045 693 659 1617 1376 17.3368 14.6986 11.99 
0.313 2 2.00 2.00 2.0 2.0 0.016 -0.047 685 659 1619 1377 17.7930 15.0252 11.99 
0.314 2 2.00 2.00 2.0 2.0 0.013 -0.045 689 659 1620 1378 17.3368 15.0252 11.99 
0.315 2 2.00 2.00 2.0 2.0 0.009 -0.045 684 660 1621 1379 17.5619 14.3858 11.99 
0.316 2 2.00 2.00 2.0 2.0 0.016 -0.045 685 660 1622 1380 17.5619 14.6986 11.99 
0.317 2 2.00 2.00 2.0 2.0 0.011 -0.047 686 660 1624 1381 17.5619 15.5433 11.99 
0.318 2 2.00 2.00 2.0 2.0 0.009 -0.045 692 657 1625 1382 18.0303 15.3667 11.99 
0.319 2 2.00 2.00 2.0 2.0 0.011 -0.045 686 653 1626 1383 17.3368 13.2575 11.99 
0.320 2 2.00 2.00 2.0 2.0 0.011 -0.045 686 656 1628 1384 17.3368 13.9409 11.99 
0.321 2 2.00 2.00 2.0 2.0 0.013 -0.045 687 651 1629 1386 18.0303 14.3858 11.99 
0.322 2 2.00 2.00 2.0 2.0 0.011 -0.045 686 652 1630 1387 16.9034 14.8601 11.99 
0.323 2 2.00 2.00 2.0 2.0 0.013 -0.042 687 650 1631 1388 17.1173 15.1940 11.99 
0.324 2 2.00 2.00 2.0 2.0 0.009 -0.045 687 652 1633 1389 17.7930 15.0252 11.99 
0.325 2 2.00 2.00 2.0 2.0 0.013 -0.045 685 650 1634 1390 18.2739 15.0252 11.99 
0.326 2 2.00 2.00 2.0 2.0 0.011 -0.040 685 655 1636 1391 18.0303 15.0252 11.99 
0.327 2 2.00 2.00 2.0 2.0 0.011 -0.042 687 660 1637 1392 18.2739 15.0252 11.99 
0.328 2 2.00 2.00 2.0 2.0 0.018 -0.042 683 661 1638 1393 17.7930 15.0252 11.99 
0.329 2 2.00 2.00 2.0 2.0 0.011 -0.045 686 664 1639 1394 17.5619 15.1940 11.99 
0.330 2 2.00 2.00 2.0 2.0 0.013 -0.045 690 659 1641 1395 17.5619 14.6986 11.99 
0.331 2 2.00 2.00 2.0 2.0 0.011 -0.045 685 661 1642 1397 18.0303 14.8601 11.99 
0.332 2 2.00 2.00 2.0 2.0 0.018 -0.047 689 657 1643 1398 17.7930 15.3667 11.99 
0.333 2 2.00 2.00 2.0 2.0 0.011 -0.045 686 658 1645 1399 17.3368 15.0252 11.99 
0.334 2 2.00 2.00 2.0 2.0 0.018 -0.045 687 658 1646 1400 17.3368 15.0252 11.99 
0.335 2 2.00 2.00 2.0 2.0 0.013 -0.045 683 659 1647 1401 17.3368 15.0252 11.99 
0.336 2 2.00 2.00 2.0 2.0 0.018 -0.045 685 659 1648 1402 17.3368 15.1940 11.99 
0.337 2 2.00 2.00 2.0 2.0 0.013 -0.042 680 656 1650 1403 17.3368 14.8601 11.99 
0.338 2 2.00 2.00 2.0 2.0 0.013 -0.047 683 652 1651 1404 17.3368 15.0252 11.99 
0.339 2 2.00 2.00 2.0 2.0 0.011 -0.045 683 653 1652 1405 17.3368 14.8601 11.99 
0.340 2 2.00 2.00 2.0 2.0 0.011 -0.042 686 651 1653 1407 17.5619 15.1940 11.99 
0.341 2 2.00 2.00 2.0 2.0 0.016 -0.045 688 654 1655 1408 17.3368 15.3667 11.99 
0.342 2 2.00 2.00 2.0 2.0 0.009 -0.042 692 655 1656 1409 17.1173 15.0252 11.99 
0.343 2 2.00 2.00 2.0 2.0 0.011 -0.045 698 658 1657 1410 17.3368 15.1940 11.99 
0.344 2 2.00 2.00 2.0 2.0 0.009 -0.042 688 659 1659 1411 17.3368 15.1940 11.99 
0.345 2 2.00 2.00 2.0 2.0 0.011 -0.047 690 661 1660 1412 17.3368 15.0252 11.99 
0.346 2 2.00 2.00 2.0 2.0 0.013 -0.045 688 656 1661 1413 17.5619 14.5405 11.99 
0.347 2 2.00 2.00 2.0 2.0 0.013 -0.045 684 659 1662 1414 17.3368 14.8601 11.99 
0.348 2 2.00 2.00 2.0 2.0 0.011 -0.042 687 659 1664 1415 17.3368 15.0252 11.99 
0.349 2 2.00 2.00 2.0 2.0 0.011 -0.042 689 664 1665 1417 17.5619 15.0252 11.99 
0.350 2 2.00 2.00 2.0 2.0 0.009 -0.045 685 660 1666 1418 18.0303 14.6986 11.99 
0.351 2 2.00 2.00 2.0 2.0 0.011 -0.045 687 659 1668 1419 17.7930 15.0252 12.01 
0.352 2 2.00 2.00 2.0 2.0 0.013 -0.042 688 652 1669 1420 17.7930 15.0252 12.01 
0.353 2 2.00 2.00 2.0 2.0 0.013 -0.045 684 647 1670 1421 17.5619 15.0252 12.01 
0.354 2 2.00 2.00 2.0 2.0 0.013 -0.045 689 649 1672 1422 17.5619 15.1940 12.01 
0.355 2 2.00 2.00 2.0 2.0 0.007 -0.047 691 651 1673 1423 18.0303 14.8601 12.01 
0.356 2 2.00 2.00 2.0 2.0 0.011 -0.042 687 658 1674 1424 17.3368 15.0252 11.99 
0.357 2 2.00 2.00 2.0 2.0 0.011 -0.045 688 658 1675 1425 17.5619 15.1940 11.99 
0.358 2 2.00 2.00 2.0 2.0 0.013 -0.042 689 660 1677 1426 18.2739 15.1940 11.99 
0.359 2 2.00 2.00 2.0 2.0 0.009 -0.042 687 659 1678 1428 16.9034 14.5405 11.99 
0.360 2 2.00 2.00 2.0 2.0 0.011 -0.045 688 659 1679 1429 17.3368 15.7241 11.99 
0.361 2 2.00 2.00 2.0 2.0 0.009 -0.045 688 660 1681 1430 17.5619 15.5433 12.01 
0.362 2 2.00 2.00 2.0 2.0 0.016 -0.047 684 654 1682 1431 18.2739 13.2575 12.01 
0.363 2 2.00 2.00 2.0 2.0 0.013 -0.045 690 652 1683 1432 18.0303 14.0861 12.01 
0.364 2 2.00 2.00 2.0 2.0 0.016 -0.045 685 652 1685 1433 18.5242 14.5405 12.01 
0.365 2 2.00 2.00 2.0 2.0 0.013 -0.045 688 653 1686 1434 17.7930 15.0252 12.01 
0.366 2 2.00 2.00 2.0 2.0 0.011 -0.047 687 649 1687 1435 17.7930 15.7241 11.99 
0.367 2 2.00 2.00 2.0 2.0 0.016 -0.045 694 656 1688 1437 17.5619 15.5433 11.99 
0.368 2 2.00 2.00 2.0 2.0 0.016 -0.045 695 660 1690 1438 18.0303 15.1940 11.99 
0.369 2 2.00 2.00 2.0 2.0 0.011 -0.045 690 658 1691 1439 18.0303 15.1940 11.99 
0.370 2 2.00 2.00 2.0 2.0 0.011 -0.045 689 660 1692 1440 17.5619 15.1940 11.99 
0.371 2 2.00 2.00 2.0 2.0 0.013 -0.047 685 664 1694 1441 17.5619 15.1940 12.01 
0.372 2 2.00 2.00 2.0 2.0 0.018 -0.045 689 664 1695 1442 17.5619 15.3667 12.01 
0.373 2 2.00 2.00 2.0 2.0 0.009 -0.045 686 663 1696 1443 17.5619 14.6986 12.01 
0.374 2 2.00 2.00 2.0 2.0 0.011 -0.047 687 660 1698 1444 17.5619 14.8601 12.01 
0.375 2 2.00 2.00 2.0 2.0 0.011 -0.045 684 654 1699 1445 17.3368 15.5433 12.01 
0.376 2 2.00 2.00 2.0 2.0 0.018 -0.045 686 652 1700 1447 17.3368 15.3667 11.99 
0.377 2 2.00 2.00 2.0 2.0 0.018 -0.045 690 653 1701 1448 17.5619 14.8601 11.99 
0.378 2 2.00 2.00 2.0 2.0 0.011 -0.045 686 651 1703 1449 17.3368 14.8601 11.99 
0.379 2 2.00 2.00 2.0 2.0 0.009 -0.045 691 649 1704 1450 17.1173 15.0252 11.99 
0.380 2 2.00 2.00 2.0 2.0 0.004 -0.042 693 655 1705 1451 17.3368 14.6986 11.99 
0.381 2 2.00 2.00 2.0 2.0 0.009 -0.045 691 659 1706 1452 17.1173 14.8601 11.99 
0.382 2 2.00 2.00 2.0 2.0 0.011 -0.045 692 655 1708 1453 17.1173 14.6986 11.99 
0.383 2 2.00 2.00 2.0 2.0 0.009 -0.042 684 661 1709 1454 17.5619 15.0252 11.99 
0.384 2 2.00 2.00 2.0 2.0 0.011 -0.042 687 661 1710 1455 17.3368 15.5433 11.99 
0.385 2 2.00 2.00 2.0 2.0 0.013 -0.045 683 659 1711 1456 17.3368 15.1940 11.99 
0.386 2 2.00 2.00 2.0 2.0 0.011 -0.042 684 657 1713 1458 17.5619 15.0252 12.01 
0.387 2 2.00 2.00 2.0 2.0 0.007 -0.042 687 658 1714 1459 17.7930 15.1940 12.01 
0.388 2 2.00 2.00 2.0 2.0 0.013 -0.045 682 658 1715 1460 17.7930 15.0252 12.01 
0.389 2 2.00 2.00 2.0 2.0 0.013 -0.045 687 659 1717 1461 17.5619 14.5405 12.01 
0.390 2 2.00 2.00 2.0 2.0 0.013 -0.045 681 659 1718 1462 17.7930 14.8601 12.01 
0.391 2 2.00 2.00 2.0 2.0 0.009 -0.045 685 663 1719 1463 17.5619 15.1940 11.99 
0.392 2 2.00 2.00 2.0 2.0 0.011 -0.042 691 665 1721 1464 18.2739 15.1940 11.99 
0.393 2 2.00 2.00 2.0 2.0 0.011 -0.045 689 661 1722 1465 17.3368 14.8601 11.99 
0.394 2 2.00 2.00 2.0 2.0 0.016 -0.042 686 660 1723 1466 17.5619 15.0252 11.99 
0.395 2 2.00 2.00 2.0 2.0 0.009 -0.045 690 660 1725 1468 18.2739 15.0252 11.99 
0.396 2 2.00 2.00 2.0 2.0 0.009 -0.045 689 654 1726 1469 17.1173 15.0252 11.99 
0.397 2 2.00 2.00 2.0 2.0 0.013 -0.045 690 650 1727 1470 17.3368 15.1940 11.99 
0.398 2 2.00 2.00 2.0 2.0 0.011 -0.042 690 654 1728 1471 17.5619 15.0252 11.99 
0.399 2 2.00 2.00 2.0 2.0 0.011 -0.042 685 654 1730 1472 18.2739 15.0252 11.99 
0.400 2 2.00 2.00 2.0 2.0 0.016 -0.045 687 650 1731 1473 18.0303 15.1940 11.99 
0.401 4 3.00 3.00 3.0 3.0 0.009 -0.042 687 652 1733 1474 18.5242 15.3667 12.01 
0.402 4 3.00 3.00 3.0 3.0 0.009 -0.056 697 642 1734 1475 17.1173 14.6986 12.01 
0.403 4 3.00 3.00 3.0 3.0 0.062 -0.080 719 628 1735 1476 17.7930 14.8601 12.01 
0.404 4 3.00 3.00 3.0 3.0 0.127 -0.096 734 620 1736 1478 17.7930 15.9091 12.01 
0.405 4 3.00 3.00 3.0 3.0 0.127 -0.089 733 628 1738 1479 18.5242 14.6986 12.01 
0.406 4 3.00 3.00 3.0 3.0 0.096 -0.096 726 620 1739 1480 18.2739 15.3667 11.94 
0.407 4 3.00 3.00 3.0 3.0 0.107 -0.094 726 625 1740 1481 17.7930 15.7241 11.94 
0.408 4 3.00 3.00 3.0 3.0 0.103 -0.092 729 623 1742 1482 18.2739 16.2924 11.94 
0.409 4 3.00 3.00 3.0 3.0 0.105 -0.092 725 623 1743 1484 18.5242 17.3368 11.94 
0.410 4 3.00 3.00 3.0 3.0 0.114 -0.089 731 627 1745 1485 18.7815 17.1173 11.94 
0.411 4 3.00 3.00 3.0 3.0 0.060 -0.080 717 632 1746 1486 19.3181 17.3368 11.96 
0.412 4 3.00 3.00 3.0 3.0 0.071 -0.080 716 629 1747 1487 19.3181 17.1173 11.96 
0.413 4 3.00 3.00 3.0 3.0 0.076 -0.080 724 632 1749 1489 19.5981 17.1173 11.96 
0.414 4 3.00 3.00 3.0 3.0 0.076 -0.083 717 628 1750 1490 19.8863 17.5619 11.96 
0.415 4 3.00 3.00 3.0 3.0 0.098 -0.083 728 629 1752 1491 19.8863 17.1173 11.96 
0.416 4 3.00 3.00 3.0 3.0 0.132 -0.085 731 630 1753 1493 20.1831 17.5619 11.94 
0.417 4 3.00 3.00 3.0 3.0 0.065 -0.083 718 631 1755 1494 20.4889 18.5242 11.94 
0.418 4 3.00 3.00 3.0 3.0 0.069 -0.080 715 631 1756 1495 20.8041 18.2739 11.94 
0.419 4 3.00 3.00 3.0 3.0 0.051 -0.078 717 631 1758 1497 20.8041 18.2739 11.94 
0.420 4 3.00 3.00 3.0 3.0 0.051 -0.078 714 630 1759 1498 21.1292 18.7815 11.94 
0.421 4 3.00 3.00 3.0 3.0 0.074 -0.074 717 633 1761 1500 21.4646 18.5242 11.91 
0.422 4 3.00 3.00 3.0 3.0 0.033 -0.080 710 631 1763 1501 22.1684 18.7815 11.91 
0.423 4 3.00 3.00 3.0 3.0 0.025 -0.069 706 633 1764 1502 21.4646 19.0460 11.91 
0.424 4 3.00 3.00 3.0 3.0 0.027 -0.074 710 633 1766 1504 21.8108 19.3181 11.91 
0.425 4 3.00 3.00 3.0 3.0 0.036 -0.074 712 632 1768 1505 22.1684 19.3181 11.91 
0.426 4 3.00 3.00 3.0 3.0 0.085 -0.076 726 630 1769 1507 22.5378 19.5981 11.96 
0.427 4 3.00 3.00 3.0 3.0 0.018 -0.074 706 632 1771 1508 22.1684 19.5981 11.96 
0.428 4 3.00 3.00 3.0 3.0 0.016 -0.080 706 630 1773 1510 23.3150 19.0460 11.96 
0.429 4 3.00 3.00 3.0 3.0 0.022 -0.067 710 638 1774 1511 21.4646 20.1831 11.96 
0.430 4 3.00 3.00 3.0 3.0 0.027 -0.069 707 639 1776 1512 21.8108 20.1831 11.96 
0.431 4 3.00 3.00 3.0 3.0 0.047 -0.065 718 642 1777 1514 22.1684 20.1831 11.96 
0.432 4 3.00 3.00 3.0 3.0 0.018 -0.067 708 638 1779 1515 22.5378 20.1831 11.96 
0.433 4 3.00 3.00 3.0 3.0 0.020 -0.074 708 636 1781 1517 22.9198 20.1831 11.96 
0.434 4 3.00 3.00 3.0 3.0 0.018 -0.067 709 641 1782 1518 22.5378 20.4889 11.96 
0.435 4 3.00 3.00 3.0 3.0 0.038 -0.067 711 644 1784 1520 22.5378 20.4889 11.96 
0.436 4 3.00 3.00 3.0 3.0 0.054 -0.065 716 642 1786 1522 23.3150 20.8041 11.96 
0.437 4 3.00 3.00 3.0 3.0 0.013 -0.067 703 639 1788 1523 23.3150 20.1831 11.96 
0.438 4 3.00 3.00 3.0 3.0 0.011 -0.065 704 640 1789 1525 23.3150 20.4889 11.96 
0.439 4 3.00 3.00 3.0 3.0 0.004 -0.067 704 643 1791 1526 23.3150 21.8108 11.96 
0.440 4 3.00 3.00 3.0 3.0 0.009 -0.067 708 638 1793 1528 23.3150 20.1831 11.96 
0.441 4 3.00 3.00 3.0 3.0 0.007 -0.067 703 637 1794 1529 23.7240 21.1292 11.98 
0.442 4 3.00 3.00 3.0 3.0 0.004 -0.065 702 641 1796 1531 23.7240 22.5378 11.98 
0.443 4 3.00 3.00 3.0 3.0 0.009 -0.062 702 642 1798 1532 24.1477 22.1684 11.98 
0.444 4 3.00 3.00 3.0 3.0 0.004 -0.056 707 646 1800 1534 24.1477 21.8108 11.98 
0.445 4 3.00 3.00 3.0 3.0 0.036 -0.058 714 643 1801 1536 24.1477 21.8108 11.98 
0.446 4 3.00 3.00 3.0 3.0 0.007 -0.060 707 642 1803 1537 24.1477 21.8108 11.98 
0.447 4 3.00 3.00 3.0 3.0 0.002 -0.060 702 641 1805 1539 24.5867 21.1292 11.98 
0.448 4 3.00 3.00 3.0 3.0 0.002 -0.062 704 641 1807 1540 24.1477 21.4646 11.98 
0.449 4 3.00 3.00 3.0 3.0 0.002 -0.062 704 642 1809 1542 24.1477 22.1684 11.98 
0.450 4 3.00 3.00 3.0 3.0 0.007 -0.060 704 642 1811 1544 25.0420 21.4646 11.98 
0.451 4 3.00 3.00 3.0 3.0 0.004 -0.060 699 643 1812 1545 24.5867 21.8108 11.98 
0.452 4 3.00 3.00 3.0 3.0 0.004 -0.058 702 647 1814 1547 24.5867 21.8108 11.98 
0.453 4 3.00 3.00 3.0 3.0 0.004 -0.058 703 643 1816 1548 25.5145 21.8108 11.98 
0.454 4 3.00 3.00 3.0 3.0 0.022 -0.058 711 645 1818 1550 25.0420 21.8108 11.98 
0.455 4 3.00 3.00 3.0 3.0 0.004 -0.058 702 644 1820 1552 24.1477 22.5378 11.98 
0.456 4 3.00 3.00 3.0 3.0 0.004 -0.058 703 644 1821 1553 25.0420 22.1684 11.98 
0.457 4 3.00 3.00 3.0 3.0 0.002 -0.056 701 644 1823 1555 24.1477 22.5378 11.98 
0.458 4 3.00 3.00 3.0 3.0 0.004 -0.058 707 643 1825 1557 25.0420 22.5378 11.98 
0.459 4 3.00 3.00 3.0 3.0 0.007 -0.056 701 645 1827 1558 25.5145 22.1684 11.98 
0.460 4 3.00 3.00 3.0 3.0 0.007 -0.056 702 644 1829 1560 26.0052 22.5378 11.98 
0.461 4 3.00 3.00 3.0 3.0 0.007 -0.054 705 646 1831 1562 24.5867 22.1684 11.98 
0.462 4 3.00 3.00 3.0 3.0 0.007 -0.056 708 645 1832 1563 24.5867 22.5378 11.98 
0.463 4 3.00 3.00 3.0 3.0 0.013 -0.058 704 641 1834 1565 25.5145 22.5378 11.98 
0.464 4 3.00 3.00 3.0 3.0 0.004 -0.058 702 644 1836 1567 24.5867 22.9198 11.98 
0.465 4 3.00 3.00 3.0 3.0 0.007 -0.051 699 642 1838 1568 25.0420 22.5378 11.98 
0.466 4 3.00 3.00 3.0 3.0 0.007 -0.054 702 644 1840 1570 25.0420 22.9198 11.98 
0.467 4 3.00 3.00 3.0 3.0 0.007 -0.054 700 645 1842 1572 25.5145 22.1684 11.98 
0.468 4 3.00 3.00 3.0 3.0 0.004 -0.058 699 644 1843 1573 25.5145 23.7240 11.98 
0.469 4 3.00 3.00 3.0 3.0 0.007 -0.056 697 646 1845 1575 25.5145 21.8108 11.98 
0.470 4 3.00 3.00 3.0 3.0 0.004 -0.058 702 646 1847 1577 25.5145 22.1684 11.98 
0.471 4 3.00 3.00 3.0 3.0 0.004 -0.058 705 649 1849 1578 25.5145 22.9198 11.98 
0.472 4 3.00 3.00 3.0 3.0 0.011 -0.056 700 648 1851 1580 25.5145 23.3150 11.98 
0.473 4 3.00 3.00 3.0 3.0 0.004 -0.056 701 645 1853 1582 26.0052 22.9198 11.98 
0.474 4 3.00 3.00 3.0 3.0 0.011 -0.056 700 648 1855 1583 25.5145 22.5378 11.98 
0.475 4 3.00 3.00 3.0 3.0 0.004 -0.054 699 648 1857 1585 25.5145 22.9198 11.98 
0.476 4 3.00 3.00 3.0 3.0 0.007 -0.054 698 649 1859 1587 26.0052 22.1684 11.98 
0.477 4 3.00 3.00 3.0 3.0 0.007 -0.056 695 646 1860 1589 25.0420 22.5378 11.98 
0.478 4 3.00 3.00 3.0 3.0 0.004 -0.056 699 644 1862 1590 25.5145 23.7240 11.98 
0.479 4 3.00 3.00 3.0 3.0 0.011 -0.056 700 646 1864 1592 26.0052 22.9198 11.98 
0.480 4 3.00 3.00 3.0 3.0 0.007 -0.054 705 648 1866 1594 25.0420 22.9198 11.98 
0.481 4 3.00 3.00 3.0 3.0 0.007 -0.054 702 647 1868 1595 26.0052 22.9198 11.98 
0.482 4 3.00 3.00 3.0 3.0 0.007 -0.051 701 646 1870 1597 26.0052 22.5378 11.98 
0.483 4 3.00 3.00 3.0 3.0 0.007 -0.054 702 647 1872 1599 25.0420 23.3150 11.98 
0.484 4 3.00 3.00 3.0 3.0 0.004 -0.051 703 645 1874 1600 26.0052 23.7240 11.98 
0.485 4 3.00 3.00 3.0 3.0 0.004 -0.054 696 646 1876 1602 26.5151 23.7240 11.98 
0.486 4 3.00 3.00 3.0 3.0 0.007 -0.051 698 646 1877 1604 26.5151 23.7240 11.98 
0.487 4 3.00 3.00 3.0 3.0 0.004 -0.056 697 645 1879 1606 26.0052 22.5378 11.98 
0.488 4 3.00 3.00 3.0 3.0 0.007 -0.051 706 653 1881 1607 26.5151 23.7240 11.98 
0.489 4 3.00 3.00 3.0 3.0 0.007 -0.051 698 653 1883 1609 26.5151 22.9198 11.98 
0.490 4 3.00 3.00 3.0 3.0 0.007 -0.049 700 651 1885 1611 26.0052 23.3150 11.98 
0.491 4 3.00 3.00 3.0 3.0 0.007 -0.054 693 646 1887 1612 26.0052 23.3150 11.98 
0.492 4 3.00 3.00 3.0 3.0 0.007 -0.056 702 647 1889 1614 26.5151 23.7240 11.98 
0.493 4 3.00 3.00 3.0 3.0 0.013 -0.054 694 647 1891 1616 26.5151 23.3150 11.98 
0.494 4 3.00 3.00 3.0 3.0 0.009 -0.047 695 650 1893 1618 26.5151 23.7240 11.98 
0.495 4 3.00 3.00 3.0 3.0 0.011 -0.049 694 652 1895 1619 26.5151 22.9198 11.98 
0.496 4 3.00 3.00 3.0 3.0 0.009 -0.051 700 652 1897 1621 25.5145 25.0420 11.98 
0.497 4 3.00 3.00 3.0 3.0 0.004 -0.051 700 645 1899 1623 26.0052 22.9198 11.98 
0.498 4 3.00 3.00 3.0 3.0 0.002 -0.058 704 647 1900 1625 26.0052 23.3150 11.98 
0.499 4 3.00 3.00 3.0 3.0 0.011 -0.051 694 647 1902 1626 26.0052 23.7240 11.98 
0.500 4 3.00 3.00 3.0 3.0 0.004 -0.054 700 646 1904 1628 26.0052 24.5867 11.98 
0.501 4 3.00 3.00 3.0 3.0 0.007 -0.049 696 647 1906 1630 26.5151 24.1477 11.98 
0.502 4 3.00 3.00 3.0 3.0 0.007 -0.051 695 647 1908 1632 26.0052 24.1477 11.98 
0.503 4 3.00 3.00 3.0 3.0 0.007 -0.047 696 649 1910 1633 26.0052 23.7240 11.98 
0.504 4 3.00 3.00 3.0 3.0 0.007 -0.051 696 646 1912 1635 26.5151 22.9198 11.98 
0.505 4 3.00 3.00 3.0 3.0 0.004 -0.054 701 646 1914 1637 25.5145 24.1477 11.98 
0.506 4 3.00 3.00 3.0 3.0 0.009 -0.054 695 645 1916 1639 26.5151 23.7240 11.98 
0.507 4 3.00 3.00 3.0 3.0 0.007 -0.054 698 648 1918 1640 25.5145 23.3150 11.98 
0.508 4 3.00 3.00 3.0 3.0 0.007 -0.054 694 647 1920 1642 26.0052 23.7240 11.98 
0.509 4 3.00 3.00 3.0 3.0 0.004 -0.049 699 650 1922 1644 26.5151 23.3150 11.98 
0.510 4 3.00 3.00 3.0 3.0 0.009 -0.056 692 647 1924 1645 26.5151 22.9198 11.98 
0.511 4 3.00 3.00 3.0 3.0 0.011 -0.051 696 649 1926 1647 27.0454 24.5867 11.98 
0.512 4 3.00 3.00 3.0 3.0 0.009 -0.051 693 650 1928 1649 26.5151 23.7240 11.98 
0.513 4 3.00 3.00 3.0 3.0 0.002 -0.051 704 653 1930 1651 27.0454 24.1477 11.98 
0.514 4 3.00 3.00 3.0 3.0 0.009 -0.051 692 649 1932 1652 27.0454 24.1477 11.98 
0.515 4 3.00 3.00 3.0 3.0 0.009 -0.049 691 647 1934 1654 26.5151 23.7240 11.98 
0.516 4 3.00 3.00 3.0 3.0 0.011 -0.049 693 650 1936 1656 26.5151 24.1477 11.98 
0.517 4 3.00 3.00 3.0 3.0 0.011 -0.047 697 651 1937 1658 26.5151 23.7240 11.98 
0.518 4 3.00 3.00 3.0 3.0 0.007 -0.047 691 653 1939 1659 27.0454 24.1477 11.98 
0.519 4 3.00 3.00 3.0 3.0 0.009 -0.054 693 646 1941 1661 27.0454 24.1477 11.98 
0.520 4 3.00 3.00 3.0 3.0 0.007 -0.051 694 650 1943 1663 27.0454 24.1477 11.98 
0.521 4 3.00 3.00 3.0 3.0 0.004 -0.051 700 651 1945 1665 26.5151 24.1477 11.98 
0.522 4 3.00 3.00 3.0 3.0 0.011 -0.049 693 651 1947 1666 26.5151 24.1477 11.98 
0.523 4 3.00 3.00 3.0 3.0 0.009 -0.051 694 649 1949 1668 27.0454 23.3150 11.98 
0.524 4 3.00 3.00 3.0 3.0 0.007 -0.056 689 646 1951 1670 26.5151 24.1477 11.98 
0.525 4 3.00 3.00 3.0 3.0 0.007 -0.056 699 645 1953 1672 26.5151 22.1684 11.98 
0.526 4 3.00 3.00 3.0 3.0 0.007 -0.056 688 645 1955 1673 27.0454 22.9198 11.98 
0.527 4 3.00 3.00 3.0 3.0 0.013 -0.054 693 646 1957 1675 26.5151 24.5867 11.98 
0.528 4 3.00 3.00 3.0 3.0 0.007 -0.051 695 648 1959 1677 26.5151 23.7240 11.98 
0.529 4 3.00 3.00 3.0 3.0 0.007 -0.051 701 647 1961 1679 27.0454 24.1477 11.98 
0.530 4 3.00 3.00 3.0 3.0 0.007 -0.049 697 649 1963 1680 26.0052 23.7240 11.98 
0.531 4 3.00 3.00 3.0 3.0 0.007 -0.047 694 648 1965 1682 26.5151 23.7240 11.98 
0.532 4 3.00 3.00 3.0 3.0 0.009 -0.049 692 647 1967 1684 25.5145 22.9198 11.98 
0.533 4 3.00 3.00 3.0 3.0 0.007 -0.054 693 643 1969 1686 26.5151 24.1477 11.98 
0.534 4 3.00 3.00 3.0 3.0 0.007 -0.051 694 648 1971 1687 27.0454 23.7240 11.98 
0.535 4 3.00 3.00 3.0 3.0 0.011 -0.051 693 645 1973 1689 27.0454 23.7240 11.98 
0.536 4 3.00 3.00 3.0 3.0 0.009 -0.051 694 648 1975 1691 26.5151 23.7240 11.98 
0.537 4 3.00 3.00 3.0 3.0 0.004 -0.051 698 649 1977 1693 26.5151 23.7240 11.98 
0.538 4 3.00 3.00 3.0 3.0 0.009 -0.051 700 652 1979 1694 27.0454 24.1477 11.98 
0.539 4 3.00 3.00 3.0 3.0 0.011 -0.049 694 650 1981 1696 26.5151 24.5867 11.98 
0.540 4 3.00 3.00 3.0 3.0 0.013 -0.049 688 653 1983 1698 27.0454 24.1477 11.98 
0.541 4 3.00 3.00 3.0 3.0 0.009 -0.051 693 651 1985 1700 27.0454 24.5867 11.98 
0.542 4 3.00 3.00 3.0 3.0 0.007 -0.051 690 650 1987 1701 27.0454 23.3150 11.98 
0.543 4 3.00 3.00 3.0 3.0 0.009 -0.049 693 648 1989 1703 27.0454 24.1477 11.98 
0.544 4 3.00 3.00 3.0 3.0 0.011 -0.049 688 650 1991 1705 27.0454 23.7240 11.98 
0.545 4 3.00 3.00 3.0 3.0 0.004 -0.047 695 652 1992 1707 26.5151 24.1477 11.98 
0.546 4 3.00 3.00 3.0 3.0 0.007 -0.049 695 649 1994 1708 26.5151 24.1477 11.98 
0.547 4 3.00 3.00 3.0 3.0 0.007 -0.054 694 647 1996 1710 27.0454 24.1477 11.98 
0.548 4 3.00 3.00 3.0 3.0 0.007 -0.051 695 647 1998 1712 27.0454 23.7240 11.98 
0.549 4 3.00 3.00 3.0 3.0 0.007 -0.051 694 648 2000 1714 27.0454 23.7240 11.98 
0.550 4 3.00 3.00 3.0 3.0 0.007 -0.049 690 647 2002 1715 27.5973 22.9198 11.98 
0.551 4 3.00 3.00 3.0 3.0 0.009 -0.054 690 644 2004 1717 27.0454 25.0420 11.98 
0.552 4 3.00 3.00 3.0 3.0 0.009 -0.056 694 646 2006 1719 27.0454 22.5378 11.98 
0.553 4 3.00 3.00 3.0 3.0 0.007 -0.056 696 644 2008 1721 27.5973 22.9198 11.98 
0.554 4 3.00 3.00 3.0 3.0 0.007 -0.054 695 646 2010 1722 26.5151 23.7240 11.98 
0.555 4 3.00 3.00 3.0 3.0 0.004 -0.051 694 649 2012 1724 27.0454 24.1477 11.98 
0.556 4 3.00 3.00 3.0 3.0 0.009 -0.051 696 649 2014 1726 25.5145 24.1477 11.98 
0.557 4 3.00 3.00 3.0 3.0 0.004 -0.051 692 651 2016 1728 26.5151 23.7240 11.98 
0.558 4 3.00 3.00 3.0 3.0 0.011 -0.049 696 652 2018 1729 27.5973 23.7240 11.98 
0.559 4 3.00 3.00 3.0 3.0 0.009 -0.047 695 648 2020 1731 27.5973 23.3150 11.98 
0.560 4 3.00 3.00 3.0 3.0 0.004 -0.051 693 649 2022 1733 26.5151 24.5867 11.98 
0.561 4 3.00 3.00 3.0 3.0 0.007 -0.049 698 648 2024 1735 26.5151 24.5867 11.94 
0.562 4 3.00 3.00 3.0 3.0 0.007 -0.051 698 649 2026 1736 27.0454 23.7240 11.94 
0.563 4 3.00 3.00 3.0 3.0 0.009 -0.049 694 650 2028 1738 26.5151 24.1477 11.94 
0.564 4 3.00 3.00 3.0 3.0 0.007 -0.049 694 650 2030 1740 27.0454 24.1477 11.94 
0.565 4 3.00 3.00 3.0 3.0 0.009 -0.056 693 647 2032 1742 27.0454 23.7240 11.94 
0.566 4 3.00 3.00 3.0 3.0 0.007 -0.051 688 648 2034 1744 27.0454 25.0420 11.99 
0.567 4 3.00 3.00 3.0 3.0 0.009 -0.051 690 647 2036 1745 27.0454 24.1477 11.99 
0.568 4 3.00 3.00 3.0 3.0 0.011 -0.047 692 650 2038 1747 27.5973 24.5867 11.99 
0.569 4 3.00 3.00 3.0 3.0 0.007 -0.049 695 647 2040 1749 27.0454 22.5378 11.99 
0.570 4 3.00 3.00 3.0 3.0 0.004 -0.049 699 648 2042 1751 27.0454 23.7240 11.99 
0.571 4 3.00 3.00 3.0 3.0 0.009 -0.051 696 649 2044 1752 27.0454 24.1477 11.98 
0.572 4 3.00 3.00 3.0 3.0 0.007 -0.047 693 651 2046 1754 27.0454 24.1477 11.98 
0.573 4 3.00 3.00 3.0 3.0 0.011 -0.051 692 650 2048 1756 27.0454 24.1477 11.98 
0.574 4 3.00 3.00 3.0 3.0 0.007 -0.056 696 648 2050 1758 28.1723 24.1477 11.98 
0.575 4 3.00 3.00 3.0 3.0 0.011 -0.051 691 651 2052 1759 27.0454 24.1477 11.98 
0.576 4 3.00 3.00 3.0 3.0 0.011 -0.047 689 652 2054 1761 27.0454 24.1477 11.91 
0.577 4 3.00 3.00 3.0 3.0 0.009 -0.049 691 650 2056 1763 27.5973 23.3150 11.91 
0.578 4 3.00 3.00 3.0 3.0 0.007 -0.049 697 652 2058 1765 26.5151 25.0420 11.91 
0.579 4 3.00 3.00 3.0 3.0 0.011 -0.054 693 650 2060 1767 27.5973 25.0420 11.91 
0.580 4 3.00 3.00 3.0 3.0 0.009 -0.056 693 645 2062 1768 26.0052 23.3150 11.91 
0.581 4 3.00 3.00 3.0 3.0 0.009 -0.054 692 648 2064 1770 27.0454 24.1477 11.98 
0.582 4 3.00 3.00 3.0 3.0 0.011 -0.054 696 648 2066 1772 27.5973 24.5867 11.98 
0.583 4 3.00 3.00 3.0 3.0 0.009 -0.051 695 648 2068 1774 28.1723 24.1477 11.98 
0.584 4 3.00 3.00 3.0 3.0 0.013 -0.049 693 648 2070 1775 27.0454 24.1477 11.98 
0.585 4 3.00 3.00 3.0 3.0 0.009 -0.047 698 652 2072 1777 26.5151 24.1477 11.98 
0.586 4 3.00 3.00 3.0 3.0 0.009 -0.047 697 652 2074 1779 27.5973 23.7240 11.98 
0.587 4 3.00 3.00 3.0 3.0 0.011 -0.049 696 646 2076 1781 26.5151 23.7240 11.98 
0.588 4 3.00 3.00 3.0 3.0 0.009 -0.051 691 648 2078 1783 27.0454 25.0420 11.98 
0.589 4 3.00 3.00 3.0 3.0 0.009 -0.051 689 648 2080 1784 26.5151 24.1477 11.98 
0.590 4 3.00 3.00 3.0 3.0 0.007 -0.049 692 651 2082 1786 27.0454 24.5867 11.98 
0.591 4 3.00 3.00 3.0 3.0 0.009 -0.045 692 651 2084 1788 27.0454 24.1477 11.96 
0.592 4 3.00 3.00 3.0 3.0 0.009 -0.051 694 648 2086 1790 27.0454 23.7240 11.96 
0.593 4 3.00 3.00 3.0 3.0 0.007 -0.047 695 650 2088 1791 26.0052 25.0420 11.96 
0.594 4 3.00 3.00 3.0 3.0 0.009 -0.051 699 652 2090 1793 27.0454 24.1477 11.96 
0.595 4 3.00 3.00 3.0 3.0 0.004 -0.047 692 652 2092 1795 27.0454 24.5867 11.96 
0.596 4 3.00 3.00 3.0 3.0 0.011 -0.051 693 650 2094 1797 27.0454 22.5378 11.99 
0.597 4 3.00 3.00 3.0 3.0 0.007 -0.049 692 650 2096 1799 27.0454 24.1477 11.99 
0.598 4 3.00 3.00 3.0 3.0 0.004 -0.047 694 646 2098 1800 27.5973 24.5867 11.99 
0.599 4 3.00 3.00 3.0 3.0 0.011 -0.047 693 651 2100 1802 27.5973 24.1477 11.99 
0.600 4 3.00 3.00 3.0 3.0 0.013 -0.049 691 651 2102 1804 27.5973 24.1477 11.99 
0.601 4 3.00 3.00 3.0 3.0 0.009 -0.054 694 649 2104 1806 28.1723 24.1477 11.96 
0.602 4 3.00 3.00 3.0 3.0 0.004 -0.051 697 651 2106 1808 27.0454 24.1477 11.96 
0.603 4 3.00 3.00 3.0 3.0 0.009 -0.049 694 649 2108 1809 27.5973 24.5867 11.96 
0.604 4 3.00 3.00 3.0 3.0 0.007 -0.049 691 653 2110 1811 26.0052 23.7240 11.96 
0.605 4 3.00 3.00 3.0 3.0 0.009 -0.047 693 649 2112 1813 27.0454 25.0420 11.96 
0.606 4 3.00 3.00 3.0 3.0 0.007 -0.051 691 647 2114 1815 28.1723 24.5867 11.98 
0.607 4 3.00 3.00 3.0 3.0 0.009 -0.054 691 644 2116 1816 28.1723 23.7240 11.98 
0.608 4 3.00 3.00 3.0 3.0 0.007 -0.051 691 651 2118 1818 27.5973 24.1477 11.98 
0.609 4 3.00 3.00 3.0 3.0 0.011 -0.049 690 649 2120 1820 27.5973 24.5867 11.98 
0.610 4 3.00 3.00 3.0 3.0 0.007 -0.049 697 649 2122 1822 27.5973 24.5867 11.98 
0.611 4 3.00 3.00 3.0 3.0 0.007 -0.049 695 650 2124 1824 27.0454 24.1477 11.98 
0.612 4 3.00 3.00 3.0 3.0 0.009 -0.049 688 653 2126 1825 27.5973 24.1477 11.98 
0.613 4 3.00 3.00 3.0 3.0 0.009 -0.047 693 657 2128 1827 27.5973 23.7240 11.98 
0.614 4 3.00 3.00 3.0 3.0 0.011 -0.051 693 649 2130 1829 27.5973 25.0420 11.98 
0.615 4 3.00 3.00 3.0 3.0 0.007 -0.049 692 647 2132 1831 27.5973 24.5867 11.98 
0.616 4 3.00 3.00 3.0 3.0 0.009 -0.054 692 650 2134 1833 27.5973 24.1477 11.98 
0.617 4 3.00 3.00 3.0 3.0 0.009 -0.049 697 652 2136 1834 27.0454 24.5867 11.98 
0.618 4 3.00 3.00 3.0 3.0 0.007 -0.047 699 652 2138 1836 27.0454 24.1477 11.98 
0.619 4 3.00 3.00 3.0 3.0 0.007 -0.049 699 651 2140 1838 27.0454 24.1477 11.98 
0.620 4 3.00 3.00 3.0 3.0 0.011 -0.051 694 647 2142 1840 27.0454 25.0420 11.98 
0.621 4 3.00 3.00 3.0 3.0 0.009 -0.047 694 650 2144 1842 27.0454 24.5867 11.93 
0.622 4 3.00 3.00 3.0 3.0 0.007 -0.047 695 649 2146 1843 27.5973 25.0420 11.93 
0.623 4 3.00 3.00 3.0 3.0 0.011 -0.049 694 646 2148 1845 27.0454 23.7240 11.93 
0.624 4 3.00 3.00 3.0 3.0 0.007 -0.049 690 649 2150 1847 27.0454 25.0420 11.93 
0.625 4 3.00 3.00 3.0 3.0 0.013 -0.047 692 650 2152 1849 27.5973 25.0420 11.93 
0.626 4 3.00 3.00 3.0 3.0 0.009 -0.047 695 653 2154 1851 27.0454 24.5867 11.99 
0.627 4 3.00 3.00 3.0 3.0 0.013 -0.049 697 653 2156 1852 27.5973 24.5867 11.99 
0.628 4 3.00 3.00 3.0 3.0 0.007 -0.051 693 650 2158 1854 26.5151 24.5867 11.99 
0.629 4 3.00 3.00 3.0 3.0 0.007 -0.049 695 652 2160 1856 27.0454 24.5867 11.99 
0.630 4 3.00 3.00 3.0 3.0 0.011 -0.049 694 652 2162 1858 28.1723 25.0420 11.99 
0.631 4 3.00 3.00 3.0 3.0 0.013 -0.047 694 652 2164 1860 28.1723 23.7240 11.98 
0.632 4 3.00 3.00 3.0 3.0 0.007 -0.051 692 649 2166 1861 27.5973 25.5145 11.98 
0.633 4 3.00 3.00 3.0 3.0 0.004 -0.051 698 646 2168 1863 27.0454 22.9198 11.98 
0.634 4 3.00 3.00 3.0 3.0 0.009 -0.054 695 645 2170 1865 27.5973 23.7240 11.98 
0.635 4 3.00 3.00 3.0 3.0 0.009 -0.051 694 647 2172 1867 27.0454 24.1477 11.98 
0.636 4 3.00 3.00 3.0 3.0 0.007 -0.051 691 647 2174 1868 27.5973 24.5867 11.98 
0.637 4 3.00 3.00 3.0 3.0 0.007 -0.049 689 648 2176 1870 27.5973 24.5867 11.98 
0.638 4 3.00 3.00 3.0 3.0 0.009 -0.051 693 649 2178 1872 27.5973 24.1477 11.98 
0.639 4 3.00 3.00 3.0 3.0 0.013 -0.049 690 653 2180 1874 27.5973 24.1477 11.98 
0.640 4 3.00 3.00 3.0 3.0 0.011 -0.047 690 654 2182 1876 27.5973 23.7240 11.98 
0.641 4 3.00 3.00 3.0 3.0 0.011 -0.051 691 650 2184 1877 27.0454 25.0420 11.98 
0.642 4 3.00 3.00 3.0 3.0 0.009 -0.049 700 650 2186 1879 27.0454 24.5867 11.98 
0.643 4 3.00 3.00 3.0 3.0 0.009 -0.049 696 654 2188 1881 27.5973 24.5867 11.98 
0.646 4 3.00 3.00 3.0 3.0 0.009 -0.049 693 652 2194 1886 27.5973 24.5867 11.98 
0.647 4 3.00 3.00 3.0 3.0 0.009 -0.047 693 649 2196 1888 27.5973 24.5867 11.98 
0.648 4 3.00 3.00 3.0 3.0 0.011 -0.042 693 648 2197 1889 27.5973 24.5867 11.98 
0.649 4 3.00 3.00 3.0 3.0 0.007 -0.042 690 652 2199 1891 27.5973 24.5867 11.98 
0.649 4 3.00 3.00 3.0 3.0 0.007 -0.036 694 651 2201 1892 28.1723 24.5867 11.98 
0.650 4 3.00 3.00 3.0 3.0 0.007 -0.049 693 650 2202 1894 27.0454 23.7240 11.98 
0.651 4 3.00 3.00 3.0 3.0 0.011 -0.051 694 648 2204 1895 27.5973 24.5867 11.98 
0.652 4 3.00 3.00 3.0 3.0 0.009 -0.049 689 651 2206 1897 26.5151 23.3150 11.99 
0.653 4 3.00 3.00 3.0 3.0 0.007 -0.049 690 650 2208 1899 27.5973 24.1477 11.99 
0.654 4 3.00 3.00 3.0 3.0 0.009 -0.051 693 647 2210 1901 28.1723 24.1477 11.99 
0.655 4 3.00 3.00 3.0 3.0 0.009 -0.051 691 648 2213 1902 28.1723 24.1477 11.99 
0.656 4 3.00 3.00 3.0 3.0 0.013 -0.051 690 649 2215 1904 27.0454 23.7240 11.99 
0.657 4 3.00 3.00 3.0 3.0 0.004 -0.049 699 650 2217 1906 27.0454 24.1477 11.98 
0.658 4 3.00 3.00 3.0 3.0 0.011 -0.051 696 652 2219 1908 27.5973 23.3150 11.98 
0.659 4 3.00 3.00 3.0 3.0 0.007 -0.054 693 644 2221 1910 27.0454 25.5145 11.98 
0.660 4 3.00 3.00 3.0 3.0 0.009 -0.054 691 647 2223 1911 27.5973 23.3150 11.98 
0.661 4 3.00 3.00 3.0 3.0 0.007 -0.054 692 645 2224 1913 27.0454 23.7240 11.98 
0.662 4 3.00 3.00 3.0 3.0 0.009 -0.051 691 644 2227 1915 27.5973 25.5145 11.99 
0.663 4 3.00 3.00 3.0 3.0 0.013 -0.049 692 650 2229 1917 27.0454 25.0420 11.99 
0.664 4 3.00 3.00 3.0 3.0 0.009 -0.051 694 649 2230 1918 27.0454 24.5867 11.99 
0.665 4 3.00 3.00 3.0 3.0 0.007 -0.047 697 652 2232 1920 26.5151 24.5867 11.99 
0.666 4 3.00 3.00 3.0 3.0 0.004 -0.047 696 651 2234 1922 27.0454 24.5867 11.99 
0.667 4 3.00 3.00 3.0 3.0 0.004 -0.045 695 654 2236 1924 27.0454 24.1477 11.99 
0.668 4 3.00 3.00 3.0 3.0 0.009 -0.049 692 648 2238 1926 27.0454 25.0420 11.99 
0.669 4 3.00 3.00 3.0 3.0 0.009 -0.047 693 652 2240 1928 27.0454 24.5867 11.99 
0.670 4 3.00 3.00 3.0 3.0 0.009 -0.049 690 650 2242 1929 27.5973 24.5867 11.99 
0.671 4 3.00 3.00 3.0 3.0 0.009 -0.049 692 654 2244 1931 27.0454 24.5867 11.99 
0.672 4 3.00 3.00 3.0 3.0 0.011 -0.047 687 651 2247 1933 27.5973 23.7240 11.98 
0.673 4 3.00 3.00 3.0 3.0 0.004 -0.051 696 648 2249 1935 28.1723 24.1477 11.98 
0.674 4 3.00 3.00 3.0 3.0 0.007 -0.051 693 650 2251 1936 27.0454 24.1477 11.98 
0.675 4 3.00 3.00 3.0 3.0 0.013 -0.049 693 649 2253 1938 27.5973 24.1477 11.98 
0.676 4 3.00 3.00 3.0 3.0 0.009 -0.049 693 649 2255 1940 26.5151 24.1477 11.98 
0.677 4 3.00 3.00 3.0 3.0 0.009 -0.051 694 647 2257 1942 27.5973 23.3150 11.98 
0.678 4 3.00 3.00 3.0 3.0 0.004 -0.051 693 647 2259 1944 28.1723 24.1477 11.98 
0.679 4 3.00 3.00 3.0 3.0 0.011 -0.049 693 652 2261 1945 28.1723 23.7240 11.98 
0.680 4 3.00 3.00 3.0 3.0 0.009 -0.045 691 652 2263 1947 27.5973 24.1477 11.98 
0.681 4 3.00 3.00 3.0 3.0 0.004 -0.051 700 647 2265 1949 27.5973 24.1477 11.98 
0.682 4 3.00 3.00 3.0 3.0 0.009 -0.051 697 647 2267 1951 28.1723 24.5867 11.99 
0.683 4 3.00 3.00 3.0 3.0 0.009 -0.051 693 649 2269 1952 27.0454 24.1477 11.99 
0.684 4 3.00 3.00 3.0 3.0 0.011 -0.047 689 651 2271 1954 27.5973 24.5867 11.99 
0.685 4 3.00 3.00 3.0 3.0 0.009 -0.047 693 652 2273 1956 27.5973 24.1477 11.99 
0.686 4 3.00 3.00 3.0 3.0 0.009 -0.054 694 649 2275 1958 27.5973 25.5145 11.99 
0.687 4 3.00 3.00 3.0 3.0 0.009 -0.051 690 649 2277 1960 27.5973 23.3150 11.99 
0.688 4 3.00 3.00 3.0 3.0 0.011 -0.051 693 648 2279 1961 27.5973 24.1477 11.99 
0.689 4 3.00 3.00 3.0 3.0 0.007 -0.049 699 652 2281 1963 27.0454 25.5145 11.99 
0.690 4 3.00 3.00 3.0 3.0 0.007 -0.049 695 653 2283 1965 27.0454 24.5867 11.99 
0.691 4 3.00 3.00 3.0 3.0 0.011 -0.049 696 652 2285 1967 27.0454 24.5867 11.99 
0.692 4 3.00 3.00 3.0 3.0 0.009 -0.047 697 653 2287 1969 27.0454 24.5867 11.98 
0.693 4 3.00 3.00 3.0 3.0 0.009 -0.047 698 653 2289 1970 27.0454 25.0420 11.98 
0.694 4 3.00 3.00 3.0 3.0 0.007 -0.047 694 654 2291 1972 27.5973 24.1477 11.98 
0.695 4 3.00 3.00 3.0 3.0 0.011 -0.049 693 650 2293 1974 27.0454 25.0420 11.98 
0.696 4 3.00 3.00 3.0 3.0 0.004 -0.051 692 647 2295 1976 27.0454 24.1477 11.98 
0.697 4 3.00 3.00 3.0 3.0 0.004 -0.051 697 649 2297 1978 27.5973 24.1477 11.99 
0.698 4 3.00 3.00 3.0 3.0 0.007 -0.049 695 649 2299 1979 26.5151 23.7240 11.99 
0.699 4 3.00 3.00 3.0 3.0 0.009 -0.054 698 645 2301 1981 27.5973 23.3150 11.99 
0.700 4 3.00 3.00 3.0 3.0 0.007 -0.056 693 646 2303 1983 26.0052 25.0420 11.99 
0.701 4 3.00 3.00 3.0 3.0 0.009 -0.054 692 647 2305 1985 27.0454 24.5867 11.99 
0.702 4 3.00 3.00 3.0 3.0 0.009 -0.049 691 656 2307 1987 27.5973 24.5867 11.99 
0.703 4 3.00 3.00 3.0 3.0 0.009 -0.049 693 653 2309 1988 28.1723 24.1477 11.99 
0.704 4 3.00 3.00 3.0 3.0 0.011 -0.049 693 653 2311 1990 27.5973 24.1477 11.99 
0.705 4 3.00 3.00 3.0 3.0 0.009 -0.049 699 654 2313 1992 27.5973 24.5867 11.99 
0.706 4 3.00 3.00 3.0 3.0 0.007 -0.049 696 654 2315 1994 27.5973 24.1477 11.99 
0.707 4 3.00 3.00 3.0 3.0 0.009 -0.047 694 654 2317 1995 27.5973 24.5867 11.99 
0.708 4 3.00 3.00 3.0 3.0 0.009 -0.051 692 648 2319 1997 27.5973 24.5867 11.99 
0.709 4 3.00 3.00 3.0 3.0 0.007 -0.051 693 649 2321 1999 27.5973 24.5867 11.99 
0.710 4 3.00 3.00 3.0 3.0 0.009 -0.045 695 653 2323 2001 27.5973 24.5867 11.99 
0.711 4 3.00 3.00 3.0 3.0 0.007 -0.049 690 653 2325 2003 27.5973 25.0420 11.99 
0.712 4 3.00 3.00 3.0 3.0 0.007 -0.049 691 651 2327 2004 27.5973 24.1477 11.99 
0.713 4 3.00 3.00 3.0 3.0 0.009 -0.049 696 649 2329 2006 27.5973 25.0420 11.99 
0.714 4 3.00 3.00 3.0 3.0 0.011 -0.049 695 646 2331 2008 27.5973 24.1477 11.99 
0.715 4 3.00 3.00 3.0 3.0 0.007 -0.047 692 650 2333 2010 27.5973 24.1477 11.99 
0.716 4 3.00 3.00 3.0 3.0 0.007 -0.049 694 648 2335 2012 27.5973 25.5145 11.99 
0.717 4 3.00 3.00 3.0 3.0 0.007 -0.051 695 644 2337 2013 27.5973 24.1477 11.98 
0.718 4 3.00 3.00 3.0 3.0 0.007 -0.051 695 645 2339 2015 27.5973 23.7240 11.98 
0.719 4 3.00 3.00 3.0 3.0 0.013 -0.051 692 651 2341 2017 27.0454 24.1477 11.98 
0.720 4 3.00 3.00 3.0 3.0 0.009 -0.049 696 652 2343 2019 27.0454 24.1477 11.98 
0.721 4 3.00 3.00 3.0 3.0 0.004 -0.051 701 650 2345 2020 27.5973 23.7240 11.98 
0.722 4 3.00 3.00 3.0 3.0 0.011 -0.054 696 649 2347 2022 27.0454 24.5867 11.98 
0.723 4 3.00 3.00 3.0 3.0 0.009 -0.051 696 650 2349 2024 27.5973 24.1477 11.98 
0.724 4 3.00 3.00 3.0 3.0 0.009 -0.047 693 651 2351 2026 26.5151 24.1477 11.98 
0.725 4 3.00 3.00 3.0 3.0 0.004 -0.049 701 653 2353 2027 27.0454 24.1477 11.98 
0.726 4 3.00 3.00 3.0 3.0 0.007 -0.054 695 649 2355 2029 27.5973 23.7240 11.98 
0.727 4 3.00 3.00 3.0 3.0 0.007 -0.051 694 650 2357 2031 27.5973 25.0420 11.99 
0.728 4 3.00 3.00 3.0 3.0 0.011 -0.051 695 652 2359 2033 27.0454 24.5867 11.99 
0.729 4 3.00 3.00 3.0 3.0 0.007 -0.049 701 650 2361 2035 27.5973 24.5867 11.99 
0.730 4 3.00 3.00 3.0 3.0 0.009 -0.049 694 651 2363 2036 27.5973 24.5867 11.99 
0.731 4 3.00 3.00 3.0 3.0 0.007 -0.049 692 649 2365 2038 27.5973 24.1477 11.99 
0.732 4 3.00 3.00 3.0 3.0 0.009 -0.049 693 649 2367 2040 27.5973 24.5867 11.99 
0.733 4 3.00 3.00 3.0 3.0 0.013 -0.045 693 654 2369 2042 27.5973 24.5867 11.99 
0.734 4 3.00 3.00 3.0 3.0 0.011 -0.047 690 651 2371 2044 27.5973 24.5867 11.99 
0.735 4 3.00 3.00 3.0 3.0 0.011 -0.054 688 646 2373 2045 27.5973 24.5867 11.99 
0.736 4 3.00 3.00 3.0 3.0 0.009 -0.049 692 649 2375 2047 27.5973 24.5867 11.99 
0.737 4 3.00 3.00 3.0 3.0 0.007 -0.047 701 650 2377 2049 27.5973 25.0420 11.98 
0.738 4 3.00 3.00 3.0 3.0 0.007 -0.047 694 650 2379 2051 27.5973 23.7240 11.98 
0.739 4 3.00 3.00 3.0 3.0 0.011 -0.047 690 649 2381 2053 27.5973 24.1477 11.98 
0.740 4 3.00 3.00 3.0 3.0 0.007 -0.051 691 648 2383 2054 27.5973 25.0420 11.98 
0.741 4 3.00 3.00 3.0 3.0 0.007 -0.051 698 649 2385 2056 27.5973 23.7240 11.98 
0.742 4 3.00 3.00 3.0 3.0 0.004 -0.051 691 649 2387 2058 27.5973 24.5867 11.98 
0.743 4 3.00 3.00 3.0 3.0 0.011 -0.047 691 653 2389 2060 27.5973 25.0420 11.98 
0.744 4 3.00 3.00 3.0 3.0 0.007 -0.049 694 649 2391 2062 27.5973 24.5867 11.98 
0.745 4 3.00 3.00 3.0 3.0 0.011 -0.049 701 652 2393 2063 27.5973 24.5867 11.98 
0.746 4 3.00 3.00 3.0 3.0 0.009 -0.047 695 651 2395 2065 27.0454 24.5867 11.98 
0.747 4 3.00 3.00 3.0 3.0 0.007 -0.049 692 651 2397 2067 27.5973 23.7240 11.99 
0.748 4 3.00 3.00 3.0 3.0 0.009 -0.049 695 652 2399 2069 26.5151 25.0420 11.99 
0.749 4 3.00 3.00 3.0 3.0 0.007 -0.051 699 652 2401 2071 27.5973 25.0420 11.99 
0.750 4 3.00 3.00 3.0 3.0 0.009 -0.049 689 646 2404 2072 27.5973 24.1477 11.99 
0.751 4 3.00 3.00 3.0 3.0 0.009 -0.049 693 650 2405 2074 28.1723 24.5867 11.99 
0.752 4 3.00 3.00 3.0 3.0 0.007 -0.049 696 649 2407 2076 27.0454 24.1477 11.99 
0.753 4 3.00 3.00 3.0 3.0 0.004 -0.051 698 645 2410 2078 27.5973 23.7240 11.99 
0.754 4 3.00 3.00 3.0 3.0 0.013 -0.051 694 649 2411 2080 27.5973 25.0420 11.99 
0.755 4 3.00 3.00 3.0 3.0 0.009 -0.047 692 649 2413 2081 27.0454 24.5867 11.99 
0.756 4 3.00 3.00 3.0 3.0 0.009 -0.047 689 651 2415 2083 27.0454 24.5867 11.99 
0.757 4 3.00 3.00 3.0 3.0 0.009 -0.049 695 651 2418 2085 27.5973 23.7240 11.99 
0.758 4 3.00 3.00 3.0 3.0 0.013 -0.051 691 650 2419 2087 27.5973 24.1477 11.99 
0.759 4 3.00 3.00 3.0 3.0 0.009 -0.047 693 652 2421 2088 27.5973 24.5867 11.99 
0.760 4 3.00 3.00 3.0 3.0 0.011 -0.049 690 653 2423 2090 27.5973 24.1477 11.99 
0.761 4 3.00 3.00 3.0 3.0 0.004 -0.049 699 650 2425 2092 27.0454 24.1477 11.99 
0.762 4 3.00 3.00 3.0 3.0 0.009 -0.051 696 648 2427 2094 27.0454 24.5867 11.98 
0.763 4 3.00 3.00 3.0 3.0 0.009 -0.051 692 650 2429 2096 27.5973 24.1477 11.98 
0.764 4 3.00 3.00 3.0 3.0 0.009 -0.047 689 651 2431 2097 27.5973 24.5867 11.98 
0.765 4 3.00 3.00 3.0 3.0 0.009 -0.047 702 650 2434 2099 27.5973 23.7240 11.98 
0.766 4 3.00 3.00 3.0 3.0 0.013 -0.051 686 647 2436 2101 27.5973 25.5145 11.98 
0.767 4 3.00 3.00 3.0 3.0 0.016 -0.051 691 647 2438 2103 27.5973 21.8108 11.99 
0.768 4 3.00 3.00 3.0 3.0 0.007 -0.051 688 647 2440 2105 27.5973 23.7240 11.99 
0.769 4 3.00 3.00 3.0 3.0 0.009 -0.051 695 651 2442 2106 28.1723 24.5867 11.99 
0.770 4 3.00 3.00 3.0 3.0 0.011 -0.049 693 652 2444 2108 27.0454 25.0420 11.99 
0.771 4 3.00 3.00 3.0 3.0 0.007 -0.049 691 648 2446 2110 27.5973 24.5867 11.99 
0.772 4 3.00 3.00 3.0 3.0 0.009 -0.049 689 648 2448 2112 26.5151 24.5867 11.98 
0.773 4 3.00 3.00 3.0 3.0 0.007 -0.047 693 650 2450 2114 27.5973 24.5867 11.98 
0.774 4 3.00 3.00 3.0 3.0 0.009 -0.047 688 650 2452 2115 27.5973 23.7240 11.98 
0.775 4 3.00 3.00 3.0 3.0 0.009 -0.049 691 652 2454 2117 28.1723 25.0420 11.98 
0.776 4 3.00 3.00 3.0 3.0 0.007 -0.051 693 649 2456 2119 27.5973 24.1477 11.98 
0.777 4 3.00 3.00 3.0 3.0 0.007 -0.049 697 651 2458 2121 28.1723 24.1477 11.98 
0.778 4 3.00 3.00 3.0 3.0 0.009 -0.047 692 653 2460 2123 26.5151 24.5867 11.98 
0.779 4 3.00 3.00 3.0 3.0 0.009 -0.047 690 652 2462 2124 27.0454 24.1477 11.98 
0.780 4 3.00 3.00 3.0 3.0 0.011 -0.051 687 650 2464 2126 27.5973 24.5867 11.98 
0.781 4 3.00 3.00 3.0 3.0 0.009 -0.047 691 648 2466 2128 27.5973 25.0420 11.98 
0.782 4 3.00 3.00 3.0 3.0 0.009 -0.049 688 652 2468 2130 27.5973 24.5867 11.98 
0.783 4 3.00 3.00 3.0 3.0 0.011 -0.047 693 651 2470 2132 27.5973 25.0420 11.98 
0.784 4 3.00 3.00 3.0 3.0 0.016 -0.051 695 649 2472 2133 27.0454 23.7240 11.98 
0.785 4 3.00 3.00 3.0 3.0 0.011 -0.047 697 652 2474 2135 27.0454 25.0420 11.98 
0.786 4 3.00 3.00 3.0 3.0 0.007 -0.047 694 649 2476 2137 27.0454 24.1477 11.98 
0.787 4 3.00 3.00 3.0 3.0 0.009 -0.047 693 650 2478 2139 27.0454 24.5867 11.99 
0.788 4 3.00 3.00 3.0 3.0 0.009 -0.047 691 651 2480 2141 27.0454 24.5867 11.99 
0.789 4 3.00 3.00 3.0 3.0 0.007 -0.049 690 646 2482 2142 27.5973 25.0420 11.99 
0.790 4 3.00 3.00 3.0 3.0 0.009 -0.049 688 649 2484 2144 27.0454 24.5867 11.99 
0.791 4 3.00 3.00 3.0 3.0 0.009 -0.047 688 654 2486 2146 27.0454 25.0420 11.99 
0.792 4 3.00 3.00 3.0 3.0 0.007 -0.047 694 653 2488 2148 27.5973 23.7240 11.98 
0.793 4 3.00 3.00 3.0 3.0 0.011 -0.051 696 649 2490 2150 26.5151 25.5145 11.98 
0.794 4 3.00 3.00 3.0 3.0 0.009 -0.054 696 649 2492 2151 27.5973 23.3150 11.98 
0.795 4 3.00 3.00 3.0 3.0 0.007 -0.051 692 647 2494 2153 26.0052 23.7240 11.98 
0.796 4 3.00 3.00 3.0 3.0 0.009 -0.049 691 650 2496 2155 27.0454 25.5145 11.98 
